ALV-7004 or ALV-7004/FAST Data
Date :	"3/27/2010"
Time :	"10:47:15 AM"
Samplename : 	"BSA 1 g/l in YCl3 8.3mM"
SampMemo(0) : 	""
SampMemo(1) : 	""
SampMemo(2) : 	""
SampMemo(3) : 	""
SampMemo(4) : 	""
SampMemo(5) : 	""
SampMemo(6) : 	""
SampMemo(7) : 	""
SampMemo(8) : 	""
SampMemo(9) : 	""
Temperature [K] :	     295.66677
Viscosity [cp]  :	       0.94306
Refractive Index:	       1.33200
Wavelength [nm] :	     632.80000
Angle [°]       :	      60.00000
Duration [s]    :	        70
Runs            :	         1
Mode            :	"C-CH0/1+1/0"
MeanCR0 [kHz]   :	      63.88913
MeanCR1 [kHz]   :	      77.59030
MeanCR2 [kHz]   :	       0.00000
MeanCR3 [kHz]   :	       0.00000

"Correlation"
  3.12500E-006	  9.03798E-001	  8.51039E-001	 -3.00000E+000	 -3.00000E+000
  6.25000E-006	  8.54773E-001	  8.19544E-001	 -3.00000E+000	 -3.00000E+000
  9.37500E-006	  9.50001E-001	  1.00832E+000	 -3.00000E+000	 -3.00000E+000
  1.25000E-005	  9.01500E-001	  8.72316E-001	 -3.00000E+000	 -3.00000E+000
  1.56250E-005	  1.03471E+000	  1.02599E+000	 -3.00000E+000	 -3.00000E+000
  1.87500E-005	  1.00422E+000	  1.09075E+000	 -3.00000E+000	 -3.00000E+000
  2.18750E-005	  8.39507E-001	  8.07650E-001	 -3.00000E+000	 -3.00000E+000
  2.50000E-005	  8.96866E-001	  9.16772E-001	 -3.00000E+000	 -3.00000E+000
  2.81250E-005	  8.66735E-001	  8.12131E-001	 -3.00000E+000	 -3.00000E+000
  3.12500E-005	  8.83478E-001	  9.25021E-001	 -3.00000E+000	 -3.00000E+000
  3.43750E-005	  8.96813E-001	  8.66667E-001	 -3.00000E+000	 -3.00000E+000
  3.75000E-005	  8.79722E-001	  8.42741E-001	 -3.00000E+000	 -3.00000E+000
  4.06250E-005	  9.26855E-001	  9.36046E-001	 -3.00000E+000	  2.10584E+000
  4.37500E-005	  1.00842E+000	  1.02135E+000	 -3.00000E+000	  2.60858E+000
  4.68750E-005	  9.25177E-001	  9.02062E-001	 -3.00000E+000	 -5.95773E-001
  5.00000E-005	  9.53066E-001	  9.52351E-001	 -3.00000E+000	  3.60060E+000
  5.62500E-005	  9.68834E-001	  9.59816E-001	 -3.00000E+000	  1.82732E+000
  6.25000E-005	  9.53791E-001	  9.69153E-001	 -3.00000E+000	  1.84368E+000
  6.87500E-005	  9.63069E-001	  9.82925E-001	 -2.88929E+000	  1.93932E+000
  7.50000E-005	  9.14933E-001	  9.17299E-001	  2.72084E+000	  1.38758E+000
  8.12500E-005	  9.68597E-001	  9.61155E-001	  1.34095E+000	  1.36740E+000
  8.75000E-005	  8.95956E-001	  8.53379E-001	  1.36620E+000	  1.35366E+000
  9.37500E-005	  9.14917E-001	  9.38948E-001	  1.23528E+000	  1.36931E+000
  1.00000E-004	  9.02401E-001	  8.79246E-001	  1.12234E+000	  1.23674E+000
  1.12500E-004	  9.37284E-001	  9.21432E-001	  1.14395E+000	  1.19306E+000
  1.25000E-004	  9.04959E-001	  9.40563E-001	  1.09368E+000	  1.19137E+000
  1.37500E-004	  9.20214E-001	  9.27385E-001	  1.00015E+000	  1.14695E+000
  1.50000E-004	  9.28122E-001	  9.27674E-001	  1.02875E+000	  1.09228E+000
  1.62500E-004	  9.11941E-001	  9.17058E-001	  9.26755E-001	  1.08980E+000
  1.75000E-004	  9.06715E-001	  9.03643E-001	  9.34049E-001	  1.06044E+000
  1.87500E-004	  9.32845E-001	  9.23449E-001	  1.00127E+000	  1.04636E+000
  2.00000E-004	  9.55809E-001	  9.82926E-001	  9.36589E-001	  1.06319E+000
  2.25000E-004	  9.29419E-001	  9.09574E-001	  9.27192E-001	  1.04337E+000
  2.50000E-004	  9.24463E-001	  9.41408E-001	  9.03549E-001	  1.07336E+000
  2.75000E-004	  9.51468E-001	  9.56447E-001	  9.13436E-001	  1.01444E+000
  3.00000E-004	  9.27257E-001	  9.34731E-001	  9.51074E-001	  1.02311E+000
  3.25000E-004	  9.28678E-001	  9.44403E-001	  9.56095E-001	  1.02548E+000
  3.50000E-004	  9.14898E-001	  9.34924E-001	  9.07252E-001	  1.01416E+000
  3.75000E-004	  9.06522E-001	  8.96406E-001	  8.98239E-001	  9.86070E-001
  4.00000E-004	  9.18053E-001	  9.29421E-001	  9.29570E-001	  9.96161E-001
  4.50000E-004	  9.10747E-001	  8.93694E-001	  9.23721E-001	  9.81253E-001
  5.00000E-004	  9.23392E-001	  9.22112E-001	  9.46841E-001	  9.64741E-001
  5.50000E-004	  9.44826E-001	  9.40666E-001	  8.98906E-001	  9.88355E-001
  6.00000E-004	  9.32063E-001	  9.42747E-001	  9.24292E-001	  9.75020E-001
  6.50000E-004	  9.13138E-001	  9.22774E-001	  9.29340E-001	  9.78247E-001
  7.00000E-004	  9.29208E-001	  9.12961E-001	  9.01820E-001	  9.46526E-001
  7.50000E-004	  9.29552E-001	  9.16084E-001	  9.20643E-001	  9.79577E-001
  8.00000E-004	  9.18642E-001	  9.20556E-001	  9.19563E-001	  9.78748E-001
  9.00000E-004	  9.18913E-001	  9.27760E-001	  9.18954E-001	  9.74618E-001
  1.00000E-003	  9.10402E-001	  9.07740E-001	  9.03147E-001	  9.57505E-001
  1.10000E-003	  9.09735E-001	  8.99989E-001	  9.18075E-001	  9.57613E-001
  1.20000E-003	  9.02592E-001	  9.08180E-001	  9.13630E-001	  9.46599E-001
  1.30000E-003	  8.97810E-001	  8.97284E-001	  9.15471E-001	  9.52935E-001
  1.40000E-003	  9.16004E-001	  9.07385E-001	  9.09456E-001	  9.39069E-001
  1.50000E-003	  8.97203E-001	  8.91498E-001	  8.98306E-001	  9.41177E-001
  1.60000E-003	  9.04052E-001	  9.06182E-001	  8.87769E-001	  9.31735E-001
  1.80000E-003	  9.08091E-001	  9.10258E-001	  8.90078E-001	  9.25965E-001
  2.00000E-003	  9.10444E-001	  9.05366E-001	  8.96232E-001	  9.24711E-001
  2.20000E-003	  8.86226E-001	  8.89040E-001	  9.00315E-001	  9.09995E-001
  2.40000E-003	  8.88427E-001	  8.94357E-001	  8.70892E-001	  9.18587E-001
  2.60000E-003	  8.81766E-001	  8.77814E-001	  8.91104E-001	  9.06168E-001
  2.80000E-003	  8.83872E-001	  8.89699E-001	  8.83342E-001	  9.07303E-001
  3.00000E-003	  8.77801E-001	  8.73062E-001	  8.76429E-001	  8.99897E-001
  3.20000E-003	  8.72611E-001	  8.73716E-001	  8.81944E-001	  8.98347E-001
  3.60000E-003	  8.65233E-001	  8.71505E-001	  8.60060E-001	  8.76020E-001
  4.00000E-003	  8.57021E-001	  8.54872E-001	  8.65317E-001	  8.79871E-001
  4.40000E-003	  8.56128E-001	  8.57313E-001	  8.48452E-001	  8.71603E-001
  4.80000E-003	  8.38964E-001	  8.42286E-001	  8.53028E-001	  8.75075E-001
  5.20000E-003	  8.36766E-001	  8.34256E-001	  8.33522E-001	  8.57364E-001
  5.60000E-003	  8.31393E-001	  8.35499E-001	  8.46186E-001	  8.52702E-001
  6.00000E-003	  8.25092E-001	  8.20011E-001	  8.39249E-001	  8.36297E-001
  6.40000E-003	  8.18135E-001	  8.16678E-001	  8.29933E-001	  8.41140E-001
  7.20000E-003	  8.01384E-001	  8.00076E-001	  8.14949E-001	  8.22824E-001
  8.00000E-003	  7.88864E-001	  7.87262E-001	  8.03489E-001	  8.04015E-001
  8.80000E-003	  7.81413E-001	  7.82768E-001	  7.89899E-001	  7.96053E-001
  9.60000E-003	  7.65806E-001	  7.67285E-001	  7.74813E-001	  7.83506E-001
  1.04000E-002	  7.51632E-001	  7.54103E-001	  7.66484E-001	  7.72377E-001
  1.12000E-002	  7.40456E-001	  7.40688E-001	  7.53089E-001	  7.58271E-001
  1.20000E-002	  7.29944E-001	  7.27776E-001	  7.41892E-001	  7.43468E-001
  1.28000E-002	  7.14168E-001	  7.13125E-001	  7.27581E-001	  7.31692E-001
  1.44000E-002	  6.96715E-001	  6.96472E-001	  7.05785E-001	  7.07500E-001
  1.60000E-002	  6.73502E-001	  6.71787E-001	  6.84900E-001	  6.88877E-001
  1.76000E-002	  6.46568E-001	  6.48803E-001	  6.56138E-001	  6.67573E-001
  1.92000E-002	  6.33319E-001	  6.34044E-001	  6.35611E-001	  6.43853E-001
  2.08000E-002	  6.06893E-001	  6.06252E-001	  6.23164E-001	  6.21406E-001
  2.24000E-002	  5.90537E-001	  5.87204E-001	  5.99676E-001	  6.02059E-001
  2.40000E-002	  5.70316E-001	  5.70019E-001	  5.81901E-001	  5.76719E-001
  2.56000E-002	  5.51319E-001	  5.52846E-001	  5.62668E-001	  5.61888E-001
  2.88000E-002	  5.16549E-001	  5.14801E-001	  5.27456E-001	  5.27165E-001
  3.20000E-002	  4.83824E-001	  4.83138E-001	  4.93867E-001	  4.93478E-001
  3.52000E-002	  4.53659E-001	  4.53358E-001	  4.62878E-001	  4.64068E-001
  3.84000E-002	  4.23915E-001	  4.22649E-001	  4.31026E-001	  4.33406E-001
  4.16000E-002	  3.99810E-001	  4.00224E-001	  4.04825E-001	  4.07558E-001
  4.48000E-002	  3.74022E-001	  3.73369E-001	  3.83343E-001	  3.80292E-001
  4.80000E-002	  3.49953E-001	  3.51158E-001	  3.61730E-001	  3.55547E-001
  5.12000E-002	  3.29158E-001	  3.29480E-001	  3.36834E-001	  3.33419E-001
  5.76000E-002	  2.88311E-001	  2.87514E-001	  2.96243E-001	  2.93028E-001
  6.40000E-002	  2.53096E-001	  2.53827E-001	  2.58646E-001	  2.61135E-001
  7.04000E-002	  2.23739E-001	  2.23588E-001	  2.28497E-001	  2.26965E-001
  7.68000E-002	  1.96121E-001	  1.96620E-001	  2.01137E-001	  2.02139E-001
  8.32000E-002	  1.72361E-001	  1.73375E-001	  1.76820E-001	  1.76668E-001
  8.96000E-002	  1.52223E-001	  1.52729E-001	  1.57613E-001	  1.55640E-001
  9.60000E-002	  1.35424E-001	  1.33710E-001	  1.37256E-001	  1.37500E-001
  1.02400E-001	  1.19532E-001	  1.20639E-001	  1.20789E-001	  1.22333E-001
  1.15200E-001	  9.13245E-002	  9.12759E-002	  9.35867E-002	  9.48110E-002
  1.28000E-001	  7.23876E-002	  7.27807E-002	  7.23619E-002	  7.32077E-002
  1.40800E-001	  5.61214E-002	  5.67405E-002	  5.67008E-002	  5.87997E-002
  1.53600E-001	  4.33570E-002	  4.44826E-002	  4.52138E-002	  4.32842E-002
  1.66400E-001	  3.42829E-002	  3.52947E-002	  3.45271E-002	  3.40707E-002
  1.79200E-001	  2.80722E-002	  3.00292E-002	  2.88009E-002	  2.68346E-002
  1.92000E-001	  2.04959E-002	  2.09979E-002	  2.21669E-002	  1.96382E-002
  2.04800E-001	  1.63270E-002	  1.67368E-002	  1.89644E-002	  1.61413E-002
  2.30400E-001	  1.02429E-002	  9.95592E-003	  1.23050E-002	  9.62795E-003
  2.56000E-001	  6.50775E-003	  6.49016E-003	  6.84941E-003	  5.69089E-003
  2.81600E-001	  3.95913E-003	  4.14205E-003	  3.73953E-003	  3.78068E-003
  3.07200E-001	  2.79913E-003	  2.80135E-003	  2.41559E-003	  3.44088E-003
  3.32800E-001	  9.18035E-004	  1.52603E-003	  4.12483E-004	  1.38191E-003
  3.58400E-001	 -6.31765E-004	 -1.44116E-004	  1.78350E-004	  7.68046E-004
  3.84000E-001	 -2.90629E-004	  4.63374E-004	 -2.70876E-004	 -1.95614E-004
  4.09600E-001	 -6.74864E-004	  3.76127E-005	  1.13489E-005	 -4.69729E-005
  4.60800E-001	  5.05380E-004	  8.38397E-004	 -6.07517E-004	  1.59098E-004
  5.12000E-001	 -1.58579E-004	  4.77152E-004	  7.94061E-004	 -4.96894E-004
  5.63200E-001	  3.54159E-004	  8.54066E-004	 -2.18734E-004	 -6.84130E-004
  6.14400E-001	 -7.24375E-004	 -3.01589E-004	 -1.00247E-003	 -1.01408E-003
  6.65600E-001	  2.56520E-004	  8.52190E-004	 -6.78960E-004	  3.48469E-004
  7.16800E-001	  9.77603E-005	  4.68894E-004	 -7.60248E-004	  9.79757E-005
  7.68000E-001	  3.56270E-004	  5.21733E-004	 -4.10410E-004	 -1.73005E-004
  8.19200E-001	  3.96794E-004	 -9.93876E-005	 -1.31284E-004	 -2.78339E-004
  9.21600E-001	  2.85120E-005	  2.34332E-004	 -1.19812E-004	 -7.29655E-005
  1.02400E+000	  1.95629E-004	  2.28987E-004	 -8.28078E-004	  7.34114E-004
  1.12640E+000	  2.89224E-004	  3.31127E-004	 -2.47861E-004	  8.68148E-004
  1.22880E+000	 -5.25420E-004	 -9.21172E-004	 -6.68789E-004	 -1.28578E-004
  1.33120E+000	 -7.46630E-004	 -1.01934E-003	 -4.19669E-004	 -6.25999E-004
  1.43360E+000	  8.82791E-004	  1.11143E-003	  1.17488E-003	  8.62720E-004
  1.53600E+000	  1.40385E-003	  1.24777E-003	  1.33915E-003	  1.75644E-003
  1.63840E+000	  1.03176E-003	  4.19052E-004	  7.62894E-004	  6.54173E-004
  1.84320E+000	  6.66990E-005	  4.27442E-004	 -2.87528E-005	  1.44417E-004
  2.04800E+000	 -2.43626E-005	 -2.87592E-004	  7.17464E-004	 -2.71778E-004
  2.25280E+000	  1.95334E-004	  1.91793E-004	  4.53105E-004	 -5.04862E-004
  2.45760E+000	 -2.44270E-004	 -1.14669E-004	 -7.04321E-004	  3.24077E-004
  2.66240E+000	 -4.56996E-004	 -5.66797E-004	 -7.98104E-004	  1.28539E-004
  2.86720E+000	  4.12844E-004	  3.29544E-004	  5.55203E-004	 -2.75773E-004
  3.07200E+000	  5.55768E-004	  3.44043E-004	  4.56303E-004	  5.93817E-004
  3.27680E+000	  4.49289E-004	  4.28862E-004	  3.21306E-004	  3.76302E-004
  3.68640E+000	  2.25580E-004	  2.53846E-004	 -2.41472E-004	 -1.59571E-005
  4.09600E+000	  4.23615E-005	  1.44900E-004	  2.77028E-004	 -4.11460E-004
  4.50560E+000	  2.79364E-004	  2.71211E-004	  2.89845E-004	  5.80523E-005
  4.91520E+000	 -2.97188E-004	 -2.71276E-004	 -3.43345E-005	 -2.94881E-004
  5.32480E+000	 -3.22912E-004	 -4.18546E-004	 -2.32405E-004	 -2.14282E-004
  5.73440E+000	  1.61623E-004	  3.52236E-004	  3.45317E-007	  1.41513E-004
  6.14400E+000	  1.59182E-004	  2.73456E-004	  3.15488E-005	 -1.97013E-004
  6.55360E+000	 -8.47015E-005	 -1.56970E-004	 -3.73779E-004	 -1.15267E-004
  7.37280E+000	 -1.24612E-004	 -2.48119E-004	  1.20882E-005	 -2.40890E-004
  8.19200E+000	 -6.93477E-005	 -1.04308E-004	 -3.85810E-004	  8.35351E-005
  9.01120E+000	 -4.15695E-005	  7.03629E-005	 -2.86940E-004	  1.81179E-004
  9.83040E+000	 -4.22788E-005	 -3.88837E-004	  8.42142E-005	 -1.50899E-004
  1.06496E+001	 -2.62397E-004	 -3.50955E-004	 -4.99026E-004	  1.78403E-004
  1.14688E+001	  3.47809E-004	  4.77232E-004	  2.30829E-004	  5.49775E-004
  1.22880E+001	 -5.10419E-005	 -2.17192E-004	  7.91892E-005	 -1.53914E-004
  1.31072E+001	 -1.07101E-004	 -2.47751E-004	 -2.55520E-004	 -4.72181E-005
  1.47456E+001	 -1.08377E-004	 -7.39184E-005	  7.83238E-005	  1.18331E-004
  1.63840E+001	 -2.69667E-004	 -4.26150E-004	 -3.82259E-004	 -1.95729E-004
  1.80224E+001	 -3.24159E-004	 -2.40920E-004	 -7.90317E-005	 -2.24764E-004
  1.96608E+001	  4.38241E-005	  1.24974E-005	  1.84924E-004	 -5.82780E-005
  2.12992E+001	 -7.39672E-005	 -2.92508E-004	 -1.53635E-004	 -7.77188E-005
  2.29376E+001	 -2.66828E-004	 -3.33472E-004	 -3.93543E-004	 -3.57984E-004
  2.45760E+001	  2.26008E-004	  1.14554E-004	  1.77740E-004	  2.40430E-004
  2.62144E+001	 -1.82445E-004	 -2.04115E-004	 -3.16836E-004	 -1.27502E-004
  2.94912E+001	  1.23379E-004	  1.27915E-004	  1.38970E-004	  1.44270E-004
  3.27680E+001	  9.81491E-006	 -5.84044E-005	  1.84365E-005	 -1.06190E-004
  3.60448E+001	  1.62298E-004	  1.85587E-004	  2.93370E-004	  1.67851E-004
  3.93216E+001	  7.04627E-005	 -1.04296E-004	  2.09013E-004	  1.73393E-004
  4.25984E+001	  2.09409E-004	  2.36669E-004	  2.30308E-004	  1.17801E-004
  4.58752E+001	  2.51267E-005	  2.67733E-005	 -4.56773E-005	  1.31245E-004
  4.91520E+001	 -2.66572E-005	  4.64116E-005	  9.53476E-005	 -8.09013E-005
  5.24288E+001	 -2.75157E-005	 -1.67474E-005	 -1.00538E-005	 -1.60121E-005
  5.89824E+001	  3.78456E-005	 -9.58398E-006	  2.33127E-005	  7.13100E-005
  6.55360E+001	 -8.21488E-006	 -5.65968E-005	  5.51644E-005	 -3.89027E-005
  7.20896E+001	  1.41970E-004	  7.75160E-005	  1.81081E-004	  7.90081E-005
  7.86432E+001	  4.14223E-005	 -7.98426E-006	 -3.79059E-005	  3.35487E-005
  8.51968E+001	  1.35585E-004	  1.67832E-004	  9.96592E-005	  1.41298E-004
  9.17504E+001	 -1.16046E-004	 -1.22966E-004	 -1.73045E-004	 -1.11047E-004
  9.83040E+001	 -1.36575E-004	 -9.26503E-005	 -1.84106E-004	 -7.65996E-005
  1.04858E+002	 -5.53635E-005	 -2.18305E-005	 -7.00887E-005	 -7.15122E-005
  1.17965E+002	  9.59098E-005	  4.92676E-005	  8.53645E-005	  1.24091E-004
  1.31072E+002	  1.88908E-004	  1.95192E-004	  1.87105E-004	  2.09919E-004
  1.44179E+002	 -6.09966E-005	 -8.28963E-005	 -3.37784E-005	 -8.51584E-005
  1.57286E+002	 -8.48134E-005	 -8.28499E-005	 -1.63895E-005	 -1.38077E-004
  1.70394E+002	  2.98806E-005	  1.80396E-005	 -2.02720E-005	  1.04353E-004
  1.83501E+002	  1.03295E-004	  1.32952E-004	  1.25245E-004	  3.05054E-005
  1.96608E+002	 -5.66843E-005	 -1.27113E-004	 -3.68105E-005	 -2.88652E-005
  2.09715E+002	 -2.11011E-005	 -1.01620E-004	 -3.92596E-005	 -3.06184E-007
  2.35930E+002	 -1.17384E-004	 -1.13962E-004	 -1.64150E-004	 -6.83514E-005
  2.62144E+002	 -2.04608E-005	 -6.28289E-005	 -1.93237E-005	 -1.01124E-005
  2.88358E+002	  1.56954E-005	 -2.69721E-005	 -1.40172E-005	  1.39983E-005
  3.14573E+002	 -9.58317E-006	 -5.39297E-005	 -1.71994E-005	 -4.25537E-005
  3.40787E+002	 -1.05774E-004	 -7.50551E-005	 -1.22072E-004	 -9.42188E-005
  3.67002E+002	  7.81611E-005	  7.05510E-005	  6.52182E-005	  1.73401E-005
  3.93216E+002	 -1.35953E-004	 -8.60207E-005	 -1.30086E-004	 -1.56525E-004
  4.19430E+002	 -6.54727E-005	 -5.42901E-005	 -1.48197E-005	 -8.87102E-005
  4.71859E+002	 -1.92202E-005	 -1.34609E-005	 -5.01618E-005	 -5.94928E-006
  5.24288E+002	 -4.75539E-006	 -8.49834E-006	 -4.27950E-006	  2.82908E-005
  5.76717E+002	  1.32273E-005	  1.83260E-005	 -2.48356E-005	  2.52774E-005
  6.29146E+002	 -1.43184E-005	 -4.11673E-005	  1.30103E-005	 -8.48208E-006
  6.81574E+002	  7.31200E-005	  1.02151E-004	  8.66392E-005	  5.34965E-005
  7.34003E+002	 -1.69870E-005	 -7.82132E-006	  1.52178E-006	 -3.05040E-005
  7.86432E+002	 -5.73088E-005	 -2.43420E-005	 -8.42072E-005	 -2.91145E-005
  8.38861E+002	 -8.64169E-006	  1.38548E-005	 -1.06767E-005	  9.71563E-007
  9.43718E+002	 -5.03723E-006	 -1.59705E-005	 -7.85163E-006	 -2.55347E-005
  1.04858E+003	 -2.17775E-005	  8.30032E-006	 -8.61397E-006	 -1.42496E-005
  1.15343E+003	 -3.78004E-006	 -3.13111E-006	 -3.39827E-006	 -1.63854E-005
  1.25829E+003	  2.51393E-005	  1.84281E-005	  4.79810E-005	  2.23986E-005
  1.36315E+003	 -2.57658E-005	 -3.45459E-005	  4.03874E-007	 -1.50198E-005
  1.46801E+003	  1.21265E-005	  2.68143E-005	  1.99664E-005	  1.65651E-005
  1.57286E+003	  1.95918E-005	  4.11492E-005	  3.50102E-005	  5.96619E-006
  1.67772E+003	  1.22120E-005	  2.33333E-005	  1.34069E-005	  9.39412E-006
  1.88744E+003	  1.60135E-005	  2.89495E-005	 -6.34705E-006	  5.35243E-005
  2.09715E+003	 -3.26067E-006	 -4.17370E-006	 -2.26863E-006	  6.89232E-006
  2.30687E+003	  1.47608E-005	  2.59129E-005	  2.06920E-005	  5.32757E-006
  2.51658E+003	 -7.62350E-006	 -8.57935E-006	 -1.61150E-006	 -2.00968E-005
  2.72630E+003	  8.54802E-006	  2.70506E-005	  1.18917E-005	 -2.02432E-006
  2.93601E+003	  7.01171E-006	  6.47409E-006	  2.16768E-005	  9.55186E-006
  3.14573E+003	 -1.69234E-006	 -7.15158E-006	 -2.49924E-005	  2.66821E-005
  3.35544E+003	  2.27520E-005	  1.62738E-005	  9.89481E-006	  2.50226E-005
  3.77487E+003	 -7.88943E-006	 -2.57130E-005	 -2.81677E-006	 -1.68912E-005
  4.19430E+003	 -1.05033E-005	 -1.03319E-005	 -4.21801E-007	 -1.73891E-005
  4.61373E+003	  5.76317E-006	  5.08309E-006	 -1.80545E-006	  8.27649E-007
  5.03317E+003	 -3.14209E-006	 -1.17137E-005	  3.93761E-006	  6.86032E-009
  5.45260E+003	 -3.04504E-005	 -2.41909E-005	 -4.80874E-005	 -2.55072E-005
  5.87203E+003	  1.57902E-005	  1.21781E-005	  1.40586E-005	  1.84283E-005
  6.29146E+003	  8.59488E-006	  5.42477E-006	  1.32683E-007	  2.82008E-005
  6.71089E+003	 -1.26981E-005	 -6.73240E-006	 -6.63647E-006	 -1.67521E-005
  7.54975E+003	 -2.31054E-005	 -1.92249E-005	 -1.75552E-005	 -2.50322E-005
  8.38861E+003	 -7.12955E-006	 -7.37947E-006	 -1.26223E-005	 -9.78774E-006
  9.22747E+003	  9.87945E-006	 -4.41204E-007	  1.54654E-005	 -5.60274E-006
  1.00663E+004	 -1.00604E-005	 -1.39015E-005	 -7.28758E-006	 -2.43533E-005
  1.09052E+004	  1.29101E-005	  8.79858E-006	  2.28702E-005	 -2.87011E-006
  1.17441E+004	 -5.21169E-007	 -3.53915E-006	  6.74530E-006	 -8.54896E-006

"Count Rate"
       0.27344	      64.05972	      77.98607	      64.05972	      77.98607
       0.54688	      64.57890	      78.98055	      64.57890	      78.98055
       0.82031	      63.44183	      76.95869	      63.44183	      76.95869
       1.09375	      64.00123	      77.11590	      64.00123	      77.11590
       1.36719	      63.01040	      77.30968	      63.01040	      77.30968
       1.64063	      63.74895	      78.51987	      63.74895	      78.51987
       1.91406	      61.79655	      75.89108	      61.79655	      75.89108
       2.18750	      62.80566	      77.04278	      62.80566	      77.04278
       2.46094	      64.19500	      77.87273	      64.19500	      77.87273
       2.73438	      62.88609	      76.17261	      62.88609	      76.17261
       3.00781	      64.99205	      78.26394	      64.99205	      78.26394
       3.28125	      63.54055	      76.44317	      63.54055	      76.44317
       3.55469	      63.71605	      76.61501	      63.71605	      76.61501
       3.82813	      63.45646	      76.98062	      63.45646	      76.98062
       4.10156	      64.86774	      78.57105	      64.86774	      78.57105
       4.37500	      65.47466	      78.66246	      65.47466	      78.66246
       4.64844	      63.18590	      77.09762	      63.18590	      77.09762
       4.92188	      63.25171	      76.19455	      63.25171	      76.19455
       5.19531	      63.69411	      76.88922	      63.69411	      76.88922
       5.46875	      63.88788	      77.55830	      63.88788	      77.55830
       5.74219	      63.41624	      76.69910	      63.41624	      76.69910
       6.01563	      64.14016	      76.93309	      64.14016	      76.93309
       6.28906	      63.60636	      77.40839	      63.60636	      77.40839
       6.56250	      63.92810	      77.08665	      63.92810	      77.08665
       6.83594	      65.29551	      79.69350	      65.29551	      79.69350
       7.10938	      63.96466	      76.81609	      63.96466	      76.81609
       7.38281	      64.37050	      77.96779	      64.37050	      77.96779
       7.65625	      62.73985	      75.93496	      62.73985	      75.93496
       7.92969	      65.34669	      78.81967	      65.34669	      78.81967
       8.20313	      64.31566	      77.51077	      64.31566	      77.51077
       8.47656	      64.68858	      79.03905	      64.68858	      79.03905
       8.75000	      64.04510	      79.14507	      64.04510	      79.14507
       9.02344	      62.79835	      76.61135	      62.79835	      76.61135
       9.29688	      63.99026	      78.83430	      63.99026	      78.83430
       9.57031	      64.06704	      77.61680	      64.06704	      77.61680
       9.84375	      64.24985	      77.94219	      64.24985	      77.94219
      10.11719	      64.50212	      79.13045	      64.50212	      79.13045
      10.39063	      63.52958	      77.26946	      63.52958	      77.26946
      10.66406	      64.18037	      78.32243	      64.18037	      78.32243
      10.93750	      64.15844	      78.66611	      64.15844	      78.66611
      11.21094	      63.73067	      78.15791	      63.73067	      78.15791
      11.48438	      63.92079	      77.46323	      63.92079	      77.46323
      11.75781	      63.56248	      77.75208	      63.56248	      77.75208
      12.03125	      65.34669	      78.64783	      65.34669	      78.64783
      12.30469	      64.96280	      77.88735	      64.96280	      77.88735
      12.57813	      63.67948	      77.16708	      63.67948	      77.16708
      12.85156	      63.88423	      77.90198	      63.88423	      77.90198
      13.12500	      65.70866	      79.48875	      65.70866	      79.48875
      13.39844	      63.47839	      76.75760	      63.47839	      76.75760
      13.67188	      64.46556	      79.20723	      64.46556	      79.20723
      13.94531	      63.69776	      78.19081	      63.69776	      78.19081
      14.21875	      63.28827	      76.73200	      63.28827	      76.73200
      14.49219	      63.87326	      78.38094	      63.87326	      78.38094
      14.76563	      64.38512	      76.62231	      64.38512	      76.62231
      15.03906	      63.75261	      78.19447	      63.75261	      78.19447
      15.31250	      62.61188	      75.77409	      62.61188	      75.77409
      15.58594	      64.93720	      78.41750	      64.93720	      78.41750
      15.85938	      63.31021	      77.12687	      63.31021	      77.12687
      16.13281	      62.81297	      77.02084	      62.81297	      77.02084
      16.40625	      63.98294	      77.37914	      63.98294	      77.37914
      16.67969	      63.49302	      76.79781	      63.49302	      76.79781
      16.95313	      63.81476	      77.09031	      63.81476	      77.09031
      17.22656	      62.97750	      78.30050	      62.97750	      78.30050
      17.50000	      64.74709	      78.90742	      64.74709	      78.90742
      17.77344	      64.64105	      77.11590	      64.64105	      77.11590
      18.04688	      64.25716	      77.58023	      64.25716	      77.58023
      18.32031	      64.96645	      78.24931	      64.96645	      78.24931
      18.59375	      63.09449	      76.86728	      63.09449	      76.86728
      18.86719	      65.22238	      78.49062	      65.22238	      78.49062
      19.14063	      63.19687	      77.94951	      63.19687	      77.94951
      19.41406	      63.85132	      78.07381	      63.85132	      78.07381
      19.68750	      64.33759	      78.12500	      64.33759	      78.12500
      19.96094	      63.80014	      77.09396	      63.80014	      77.09396
      20.23438	      63.62464	      75.91668	      63.62464	      75.91668
      20.50781	      63.93541	      78.19813	      63.93541	      78.19813
      20.78125	      63.72701	      76.87460	      63.72701	      76.87460
      21.05469	      63.59539	      76.76856	      63.59539	      76.76856
      21.32813	      63.86960	      78.74655	      63.86960	      78.74655
      21.60156	      64.39975	      76.32617	      64.39975	      76.32617
      21.87500	      64.05972	      76.27498	      64.05972	      76.27498
      22.14844	      64.39975	      76.92213	      64.39975	      76.92213
      22.42188	      62.74350	      76.16530	      62.74350	      76.16530
      22.69531	      63.06159	      77.68992	      63.06159	      77.68992
      22.96875	      65.10905	      77.78498	      65.10905	      77.78498
      23.24219	      64.80193	      78.12135	      64.80193	      78.12135
      23.51563	      63.51130	      76.47973	      63.51130	      76.47973
      23.78906	      61.85140	      76.90384	      61.85140	      76.90384
      24.06250	      63.82207	      77.06471	      63.82207	      77.06471
      24.33594	      64.66665	      77.75938	      64.66665	      77.75938
      24.60938	      63.46011	      79.11217	      63.46011	      79.11217
      24.88281	      64.66665	      78.63686	      64.66665	      78.63686
      25.15625	      64.46190	      77.79594	      64.46190	      77.79594
      25.42969	      63.46011	      78.55643	      63.46011	      78.55643
      25.70313	      62.94825	      75.80334	      62.94825	      75.80334
      25.97656	      63.62830	      77.98607	      63.62830	      77.98607
      26.25000	      63.52227	      76.55650	      63.52227	      76.55650
      26.52344	      64.14016	      77.65336	      64.14016	      77.65336
      26.79688	      63.29559	      76.85265	      63.29559	      76.85265
      27.07031	      64.16576	      77.28043	      64.16576	      77.28043
      27.34375	      64.06704	      77.17805	      64.06704	      77.17805
      27.61719	      63.44183	      78.08844	      63.44183	      78.08844
      27.89063	      64.04144	      77.94585	      64.04144	      77.94585
      28.16406	      64.92989	      77.33893	      64.92989	      77.33893
      28.43750	      64.30469	      77.62045	      64.30469	      77.62045
      28.71094	      64.12188	      77.76670	      64.12188	      77.76670
      28.98438	      64.12919	      77.40474	      64.12919	      77.40474
      29.25781	      64.29737	      78.13963	      64.29737	      78.13963
      29.53125	      63.31021	      77.31333	      63.31021	      77.31333
      29.80469	      63.88423	      78.96592	      63.88423	      78.96592
      30.07813	      61.81849	      76.46145	      61.81849	      76.46145
      30.35156	      62.27917	      77.67164	      62.27917	      77.67164
      30.62500	      62.68501	      76.67351	      62.68501	      76.67351
      30.89844	      64.47652	      79.18895	      64.47652	      79.18895
      31.17188	      63.22977	      78.24931	      63.22977	      78.24931
      31.44531	      64.14016	      78.17253	      64.14016	      78.17253
      31.71875	      62.47295	      77.55099	      62.47295	      77.55099
      31.99219	      64.56793	      78.24931	      64.56793	      78.24931
      32.26563	      63.19321	      75.60956	      63.19321	      75.60956
      32.53906	      64.40706	      78.10672	      64.40706	      78.10672
      32.81250	      62.84953	      78.63321	      62.84953	      78.63321
      33.08594	      63.84035	      78.36266	      63.84035	      78.36266
      33.35938	      64.26081	      77.49980	      64.26081	      77.49980
      33.63281	      62.09636	      76.00808	      62.09636	      76.00808
      33.90625	      64.50578	      77.78864	      64.50578	      77.78864
      34.17969	      62.95556	      77.15612	      62.95556	      77.15612
      34.45313	      64.00854	      76.35542	      64.00854	      76.35542
      34.72656	      63.49302	      77.01353	      63.49302	      77.01353
      35.00000	      64.35587	      77.38280	      64.35587	      77.38280
      35.27344	      63.44183	      77.63508	      63.44183	      77.63508
      35.54688	      64.31200	      77.22559	      64.31200	      77.22559
      35.82031	      64.51309	      76.95869	      64.51309	      76.95869
      36.09375	      64.46922	      77.87273	      64.46922	      77.87273
      36.36719	      64.24253	      78.16888	      64.24253	      78.16888
      36.64063	      65.01398	      79.80318	      65.01398	      79.80318
      36.91406	      62.66307	      75.29147	      62.66307	      75.29147
      37.18750	      64.14381	      77.72282	      64.14381	      77.72282
      37.46094	      64.19135	      79.14873	      64.19135	      79.14873
      37.73438	      64.58621	      78.38824	      64.58621	      78.38824
      38.00781	      64.89333	      77.02084	      64.89333	      77.02084
      38.28125	      63.92445	      77.08665	      63.92445	      77.08665
      38.55469	      63.78917	      77.82885	      63.78917	      77.82885
      38.82813	      64.01219	      76.61501	      64.01219	      76.61501
      39.10156	      62.99578	      78.09576	      62.99578	      78.09576
      39.37500	      64.67396	      78.47965	      64.67396	      78.47965
      39.64844	      63.71605	      77.03546	      63.71605	      77.03546
      39.92188	      65.50757	      78.12866	      65.50757	      78.12866
      40.19531	      63.59174	      78.35900	      63.59174	      78.35900
      40.46875	      65.16754	      77.80326	      65.16754	      77.80326
      40.74219	      63.53323	      76.26036	      63.53323	      76.26036
      41.01563	      62.04883	      76.14702	      62.04883	      76.14702
      41.28906	      62.99212	      76.71007	      62.99212	      76.71007
      41.56250	      62.73619	      75.47428	      62.73619	      75.47428
      41.83594	      62.89706	      76.31155	      62.89706	      76.31155
      42.10938	      65.74522	      79.03173	      65.74522	      79.03173
      42.38281	      63.17859	      75.93496	      63.17859	      75.93496
      42.65625	      63.70873	      77.71185	      63.70873	      77.71185
      42.92969	      63.56248	      77.90929	      63.56248	      77.90929
      43.20313	      63.54055	      78.87086	      63.54055	      78.87086
      43.47656	      63.61733	      77.58023	      63.61733	      77.58023
      43.75000	      63.73433	      77.24387	      63.73433	      77.24387
      44.02344	      63.19687	      77.00256	      63.19687	      77.00256
      44.29688	      62.95556	      76.08486	      62.95556	      76.08486
      44.57031	      62.85319	      77.10493	      62.85319	      77.10493
      44.84375	      64.06338	      78.26759	      64.06338	      78.26759
      45.11719	      63.02503	      76.92578	      63.02503	      76.92578
      45.39063	      63.56980	      76.75394	      63.56980	      76.75394
      45.66406	      63.87326	      78.10672	      63.87326	      78.10672
      45.93750	      63.40162	      76.27132	      63.40162	      76.27132
      46.21094	      63.15299	      76.83437	      63.15299	      76.83437
      46.48438	      63.55883	      76.84534	      63.55883	      76.84534
      46.75781	      64.20232	      78.51256	      64.20232	      78.51256
      47.03125	      63.89885	      76.50166	      63.89885	      76.50166
      47.30469	      63.31752	      76.56017	      63.31752	      76.56017
      47.57813	      63.28827	      76.96600	      63.28827	      76.96600
      47.85156	      63.70142	      77.20731	      63.70142	      77.20731
      48.12500	      63.44183	      77.90198	      63.44183	      77.90198
      48.39844	      64.92989	      78.49793	      64.92989	      78.49793
      48.67188	      64.62643	      78.88914	      64.62643	      78.88914
      48.94531	      64.11456	      77.56927	      64.11456	      77.56927
      49.21875	      65.52219	      79.23648	      65.52219	      79.23648
      49.49219	      64.77267	      78.88548	      64.77267	      78.88548
      49.76563	      62.95922	      76.90750	      62.95922	      76.90750
      50.03906	      63.82573	      76.77953	      63.82573	      76.77953
      50.31250	      63.09084	      76.22379	      63.09084	      76.22379
      50.58594	      62.89341	      76.46876	      62.89341	      76.46876
      50.85938	      63.96466	      77.65701	      63.96466	      77.65701
      51.13281	      64.20963	      78.24931	      64.20963	      78.24931
      51.40625	      64.10360	      77.96047	      64.10360	      77.96047
      51.67969	      62.92997	      77.52174	      62.92997	      77.52174
      51.95313	      62.98847	      75.70097	      62.98847	      75.70097
      52.22656	      63.52227	      77.23656	      63.52227	      77.23656
      52.50000	      64.66299	      78.02263	      64.66299	      78.02263
      52.77344	      65.18948	      78.84527	      65.18948	      78.84527
      53.04688	      63.86595	      76.87825	      63.86595	      76.87825
      53.32031	      64.81290	      78.04457	      64.81290	      78.04457
      53.59375	      64.03779	      77.60217	      64.03779	      77.60217
      53.86719	      62.29014	      75.80699	      62.29014	      75.80699
      54.14063	      63.54786	      77.31333	      63.54786	      77.31333
      54.41406	      64.53503	      78.57471	      64.53503	      78.57471
      54.68750	      64.19500	      76.91481	      64.19500	      76.91481
      54.96094	      63.52227	      79.13045	      63.52227	      79.13045
      55.23438	      63.28461	      78.08479	      63.28461	      78.08479
      55.50781	      63.69776	      77.60583	      63.69776	      77.60583
      55.78125	      63.58442	      77.45592	      63.58442	      77.45592
      56.05469	      65.46369	      79.17798	      65.46369	      79.17798
      56.32813	      63.37236	      77.34624	      63.37236	      77.34624
      56.60156	      60.94467	      74.80886	      60.94467	      74.80886
      56.87500	      62.11098	      75.14523	      62.11098	      75.14523
      57.14844	      64.67030	      78.16888	      64.67030	      78.16888
      57.42188	      62.81663	      76.95869	      62.81663	      76.95869
      57.69531	      65.05054	      78.34071	      65.05054	      78.34071
      57.96875	      63.66486	      77.83251	      63.66486	      77.83251
      58.24219	      64.92989	      77.49249	      64.92989	      77.49249
      58.51563	      62.88975	      77.60583	      62.88975	      77.60583
      58.78906	      63.71970	      78.11769	      63.71970	      78.11769
      59.06250	      64.32297	      77.81789	      64.32297	      77.81789
      59.33594	      62.25723	      76.15067	      62.25723	      76.15067
      59.60938	      64.90064	      79.18895	      64.90064	      79.18895
      59.88281	      63.73433	      77.40474	      63.73433	      77.40474
      60.15625	      64.83483	      77.83982	      64.83483	      77.83982
      60.42969	      63.93907	      77.40474	      63.93907	      77.40474
      60.70313	      64.48019	      79.52531	      64.48019	      79.52531
      60.97656	      64.58256	      77.37183	      64.58256	      77.37183
      61.25000	      64.18404	      77.71552	      64.18404	      77.71552
      61.52344	      64.81290	      79.34251	      64.81290	      79.34251
      61.79688	      64.10725	      77.79229	      64.10725	      77.79229
      62.07031	      65.09442	      78.27125	      65.09442	      78.27125
      62.34375	      62.24992	      75.63149	      62.24992	      75.63149
      62.61719	      63.66851	      77.37549	      63.66851	      77.37549
      62.89063	      64.29372	      77.77401	      64.29372	      77.77401
      63.16406	      64.58256	      78.17619	      64.58256	      78.17619
      63.43750	      62.39617	      76.36639	      62.39617	      76.36639
      63.71094	      63.71239	      77.17805	      63.71239	      77.17805
      63.98438	      64.75439	      78.73924	      64.75439	      78.73924
      64.25781	      64.41438	      77.30237	      64.41438	      77.30237
      64.53125	      63.16762	      76.75028	      63.16762	      76.75028
      64.80469	      64.53137	      79.50338	      64.53137	      79.50338
      65.07813	      64.08166	      79.71178	      64.08166	      79.71178
      65.35156	      64.19500	      77.65701	      64.19500	      77.65701
      65.62500	      65.64650	      79.75200	      65.64650	      79.75200
      65.89844	      63.79648	      76.54189	      63.79648	      76.54189
      66.17188	      62.86781	      76.75028	      62.86781	      76.75028
      66.44531	      62.06711	      76.57113	      62.06711	      76.57113
      66.71875	      64.38512	      78.64418	      64.38512	      78.64418
      66.99219	      64.25716	      77.81057	      64.25716	      77.81057
      67.26563	      64.74709	      79.05367	      64.74709	      79.05367
      67.53906	      64.06338	      77.46323	      64.06338	      77.46323
      67.81250	      62.98847	      76.09217	      62.98847	      76.09217
      68.08594	      65.00301	      76.97331	      65.00301	      76.97331
      68.35938	      64.53868	      77.04643	      64.53868	      77.04643
      68.63281	      63.84767	      77.79594	      63.84767	      77.79594
      68.90625	      65.05786	      78.39191	      65.05786	      78.39191
      69.17969	      65.30648	      78.52718	      65.30648	      78.52718
      69.45313	      63.80379	      77.83617	      63.80379	      77.83617

Monitor Diode	1634204.11
"StandardDeviation"
  3.12500E-006	  4.01209E-002
  6.25000E-006	  4.01207E-002
  9.37500E-006	  4.01209E-002
  1.25000E-005	  4.01206E-002
  1.56250E-005	  4.01209E-002
  1.87500E-005	  4.01207E-002
  2.18750E-005	  4.01203E-002
  2.50000E-005	  4.01207E-002
  2.81250E-005	  3.99949E-002
  3.12500E-005	  3.96878E-002
  3.43750E-005	  4.01204E-002
  3.75000E-005	  3.94973E-002
  4.06250E-005	  4.01207E-002
  4.37500E-005	  3.96273E-002
  4.68750E-005	  3.89116E-002
  5.00000E-005	  2.81065E-002
  5.62500E-005	  2.78502E-002
  6.25000E-005	  2.78846E-002
  6.87500E-005	  2.76808E-002
  7.50000E-005	  2.76659E-002
  8.12500E-005	  2.79871E-002
  8.75000E-005	  2.74031E-002
  9.37500E-005	  2.78676E-002
  1.00000E-004	  1.96845E-002
  1.12500E-004	  1.95059E-002
  1.25000E-004	  1.95861E-002
  1.37500E-004	  1.96489E-002
  1.50000E-004	  1.96227E-002
  1.62500E-004	  1.95155E-002
  1.75000E-004	  1.95670E-002
  1.87500E-004	  1.96851E-002
  2.00000E-004	  1.39830E-002
  2.25000E-004	  1.39404E-002
  2.50000E-004	  1.38976E-002
  2.75000E-004	  1.39635E-002
  3.00000E-004	  1.39008E-002
  3.25000E-004	  1.39221E-002
  3.50000E-004	  1.39246E-002
  3.75000E-004	  1.38863E-002
  4.00000E-004	  9.86349E-003
  4.50000E-004	  9.83910E-003
  5.00000E-004	  9.89947E-003
  5.50000E-004	  9.86174E-003
  6.00000E-004	  9.87246E-003
  6.50000E-004	  9.85121E-003
  7.00000E-004	  9.84981E-003
  7.50000E-004	  9.86273E-003
  8.00000E-004	  7.00852E-003
  9.00000E-004	  6.97922E-003
  1.00000E-003	  6.97583E-003
  1.10000E-003	  6.97917E-003
  1.20000E-003	  6.97168E-003
  1.30000E-003	  6.95867E-003
  1.40000E-003	  6.99646E-003
  1.50000E-003	  6.97168E-003
  1.60000E-003	  4.95090E-003
  1.80000E-003	  4.96797E-003
  2.00000E-003	  4.96216E-003
  2.20000E-003	  4.95315E-003
  2.40000E-003	  4.94295E-003
  2.60000E-003	  4.94645E-003
  2.80000E-003	  4.95047E-003
  3.00000E-003	  4.93918E-003
  3.20000E-003	  3.52804E-003
  3.60000E-003	  3.52302E-003
  4.00000E-003	  3.52345E-003
  4.40000E-003	  3.52532E-003
  4.80000E-003	  3.51426E-003
  5.20000E-003	  3.51606E-003
  5.60000E-003	  3.50922E-003
  6.00000E-003	  3.50577E-003
  6.40000E-003	  2.52832E-003
  7.20000E-003	  2.52460E-003
  8.00000E-003	  2.51802E-003
  8.80000E-003	  2.51622E-003
  9.60000E-003	  2.50953E-003
  1.04000E-002	  2.50220E-003
  1.12000E-002	  2.49885E-003
  1.20000E-002	  2.49589E-003
  1.28000E-002	  1.82812E-003
  1.44000E-002	  1.82310E-003
  1.60000E-002	  1.81438E-003
  1.76000E-002	  1.80606E-003
  1.92000E-002	  1.80127E-003
  2.08000E-002	  1.79375E-003
  2.24000E-002	  1.78823E-003
  2.40000E-002	  1.78125E-003
  2.56000E-002	  1.33499E-003
  2.88000E-002	  1.32469E-003
  3.20000E-002	  1.31492E-003
  3.52000E-002	  1.30532E-003
  3.84000E-002	  1.29749E-003
  4.16000E-002	  1.28927E-003
  4.48000E-002	  1.28191E-003
  4.80000E-002	  1.27429E-003
  5.12000E-002	  9.82581E-004
  5.76000E-002	  9.70140E-004
  6.40000E-002	  9.59744E-004
  7.04000E-002	  9.50736E-004
  7.68000E-002	  9.42556E-004
  8.32000E-002	  9.35728E-004
  8.96000E-002	  9.29649E-004
  9.60000E-002	  9.24374E-004
  1.02400E-001	  7.34576E-004
  1.15200E-001	  7.25722E-004
  1.28000E-001	  7.19646E-004
  1.40800E-001	  7.14596E-004
  1.53600E-001	  7.10211E-004
  1.66400E-001	  6.97847E-004
  1.79200E-001	  6.97847E-004
  1.92000E-001	  6.97847E-004
  2.04800E-001	  5.71716E-004
  2.30400E-001	  5.71716E-004
  2.56000E-001	  5.71716E-004
  2.81600E-001	  5.71716E-004
  3.07200E-001	  5.71716E-004
  3.32800E-001	  5.71716E-004
  3.58400E-001	  5.71716E-004
  3.84000E-001	  5.71716E-004
  4.09600E-001	  4.80930E-004
  4.60800E-001	  4.80930E-004
  5.12000E-001	  4.80930E-004
  5.63200E-001	  4.80930E-004
  6.14400E-001	  4.80930E-004
  6.65600E-001	  4.80930E-004
  7.16800E-001	  4.80930E-004
  7.68000E-001	  4.80930E-004
  8.19200E-001	  4.09069E-004
  9.21600E-001	  4.09069E-004
  1.02400E+000	  4.09069E-004
  1.12640E+000	  4.09069E-004
  1.22880E+000	  4.09069E-004
  1.33120E+000	  4.09069E-004
  1.43360E+000	  4.09069E-004
  1.53600E+000	  4.09069E-004
  1.63840E+000	  3.30617E-004
  1.84320E+000	  3.30617E-004
  2.04800E+000	  3.30617E-004
  2.25280E+000	  3.30617E-004
  2.45760E+000	  3.30617E-004
  2.66240E+000	  3.30617E-004
  2.86720E+000	  3.30617E-004
  3.07200E+000	  3.30617E-004
  3.27680E+000	  2.54061E-004
  3.68640E+000	  2.54061E-004
  4.09600E+000	  2.54061E-004
  4.50560E+000	  2.54061E-004
  4.91520E+000	  2.54061E-004
  5.32480E+000	  2.54061E-004
  5.73440E+000	  2.54061E-004
  6.14400E+000	  2.54061E-004
  6.55360E+000	  1.87399E-004
  7.37280E+000	  1.87399E-004
  8.19200E+000	  1.87399E-004
  9.01120E+000	  1.87399E-004
  9.83040E+000	  1.87399E-004
  1.06496E+001	  1.87399E-004
  1.14688E+001	  1.87399E-004
  1.22880E+001	  1.87399E-004
  1.31072E+001	  1.35254E-004
  1.47456E+001	  1.35254E-004
  1.63840E+001	  1.35254E-004
  1.80224E+001	  1.35254E-004
  1.96608E+001	  1.35254E-004
  2.12992E+001	  1.35254E-004
  2.29376E+001	  1.35254E-004
  2.45760E+001	  1.35254E-004
  2.62144E+001	  9.65938E-005
  2.94912E+001	  9.65938E-005
  3.27680E+001	  9.65938E-005
  3.60448E+001	  9.65938E-005
  3.93216E+001	  9.65938E-005
  4.25984E+001	  9.65938E-005
  4.58752E+001	  9.65938E-005
  4.91520E+001	  9.65938E-005
  5.24288E+001	  6.86193E-005
  5.89824E+001	  6.86193E-005
  6.55360E+001	  6.86193E-005
  7.20896E+001	  6.86193E-005
  7.86432E+001	  6.86193E-005
  8.51968E+001	  6.86193E-005
  9.17504E+001	  6.86193E-005
  9.83040E+001	  6.86193E-005
  1.04858E+002	  4.86043E-005
  1.17965E+002	  4.86043E-005
  1.31072E+002	  4.86043E-005
  1.44179E+002	  4.86043E-005
  1.57286E+002	  4.86043E-005
  1.70394E+002	  4.86043E-005
  1.83501E+002	  4.86043E-005
  1.96608E+002	  4.86043E-005
  2.09715E+002	  3.43566E-005
  2.35930E+002	  3.43566E-005
  2.62144E+002	  3.43566E-005
  2.88358E+002	  3.43566E-005
  3.14573E+002	  3.43566E-005
  3.40787E+002	  3.43566E-005
  3.67002E+002	  3.43566E-005
  3.93216E+002	  3.43566E-005
  4.19430E+002	  2.42313E-005
  4.71859E+002	  2.42313E-005
  5.24288E+002	  2.42313E-005
  5.76717E+002	  2.42313E-005
  6.29146E+002	  2.42313E-005
  6.81574E+002	  2.42313E-005
  7.34003E+002	  2.42313E-005
  7.86432E+002	  2.42313E-005
  8.38861E+002	  1.70291E-005
  9.43718E+002	  1.70291E-005
  1.04858E+003	  1.70291E-005
  1.15343E+003	  1.70291E-005
  1.25829E+003	  1.70291E-005
  1.36315E+003	  1.70291E-005
  1.46801E+003	  1.70291E-005
  1.57286E+003	  1.70291E-005
  1.67772E+003	  1.18856E-005
  1.88744E+003	  1.18856E-005
  2.09715E+003	  1.18856E-005
  2.30687E+003	  1.18856E-005
  2.51658E+003	  1.18856E-005
  2.72630E+003	  1.18856E-005
  2.93601E+003	  1.18856E-005
  3.14573E+003	  1.18856E-005
  3.35544E+003	  8.17745E-006
  3.77487E+003	  8.17745E-006
  4.19430E+003	  8.17745E-006
  4.61373E+003	  8.17745E-006
  5.03317E+003	  8.17745E-006
  5.45260E+003	  8.17745E-006
  5.87203E+003	  8.17745E-006
  6.29146E+003	  8.17745E-006
  6.71089E+003	  5.44645E-006
  7.54975E+003	  5.44645E-006
  8.38861E+003	  5.44645E-006
  9.22747E+003	  5.44645E-006
  1.00663E+004	  5.44645E-006
  1.09052E+004	  5.44645E-006
  1.17441E+004	  5.44645E-006
