ALV-7004 or ALV-7004/FAST Data
Date :	"3/27/2010"
Time :	"3:16:11 PM"
Samplename : 	"BSA 1 g/l in YCl3 83mM (second repetition)"
SampMemo(0) : 	""
SampMemo(1) : 	""
SampMemo(2) : 	""
SampMemo(3) : 	""
SampMemo(4) : 	""
SampMemo(5) : 	""
SampMemo(6) : 	""
SampMemo(7) : 	""
SampMemo(8) : 	""
SampMemo(9) : 	""
Temperature [K] :	     295.78496
Viscosity [cp]  :	       0.94029
Refractive Index:	       1.33200
Wavelength [nm] :	     632.80000
Angle [°]       :	     130.00000
Duration [s]    :	        70
Runs            :	         1
Mode            :	"C-CH0/1+1/0"
MeanCR0 [kHz]   :	     153.31855
MeanCR1 [kHz]   :	     176.68297
MeanCR2 [kHz]   :	       0.00000
MeanCR3 [kHz]   :	       0.00000

"Correlation"
  3.12500E-006	  9.49180E-001	  9.58608E-001	 -3.00000E+000	 -3.00000E+000
  6.25000E-006	  9.57685E-001	  9.37028E-001	 -3.00000E+000	 -3.00000E+000
  9.37500E-006	  9.57079E-001	  9.63126E-001	 -3.00000E+000	 -3.00000E+000
  1.25000E-005	  9.41874E-001	  9.05465E-001	 -3.00000E+000	 -3.00000E+000
  1.56250E-005	  9.76739E-001	  9.84857E-001	 -3.00000E+000	 -3.00000E+000
  1.87500E-005	  1.01131E+000	  1.03629E+000	 -3.00000E+000	 -3.00000E+000
  2.18750E-005	  9.68453E-001	  9.60956E-001	 -3.00000E+000	 -3.00000E+000
  2.50000E-005	  1.00578E+000	  1.04907E+000	 -3.00000E+000	 -3.00000E+000
  2.81250E-005	  9.70949E-001	  9.66248E-001	 -3.00000E+000	 -3.00000E+000
  3.12500E-005	  9.98794E-001	  9.81928E-001	 -3.00000E+000	 -3.00000E+000
  3.43750E-005	  9.42121E-001	  9.69475E-001	 -3.00000E+000	 -3.00000E+000
  3.75000E-005	  9.77410E-001	  9.44476E-001	 -3.00000E+000	 -3.00000E+000
  4.06250E-005	  9.88304E-001	  9.86478E-001	 -3.00000E+000	  1.55085E+000
  4.37500E-005	  1.00769E+000	  1.00729E+000	 -3.00000E+000	  1.50014E+000
  4.68750E-005	  9.82599E-001	  9.87574E-001	 -3.00000E+000	 -8.35153E-001
  5.00000E-005	  1.00183E+000	  9.89766E-001	 -3.00000E+000	  2.93418E+000
  5.62500E-005	  9.56367E-001	  9.55072E-001	 -3.00000E+000	  1.46218E+000
  6.25000E-005	  1.01039E+000	  1.00381E+000	 -3.00000E+000	  1.46791E+000
  6.87500E-005	  9.55662E-001	  9.58210E-001	 -2.85471E+000	  1.63831E+000
  7.50000E-005	  9.68748E-001	  9.74059E-001	  2.62522E+000	  1.16240E+000
  8.12500E-005	  9.97617E-001	  9.80616E-001	  1.21196E+000	  1.19219E+000
  8.75000E-005	  9.47344E-001	  9.38948E-001	  1.31796E+000	  1.16401E+000
  9.37500E-005	  9.50415E-001	  9.39916E-001	  1.23449E+000	  1.15851E+000
  1.00000E-004	  9.44048E-001	  9.47372E-001	  1.11430E+000	  1.08738E+000
  1.12500E-004	  9.80419E-001	  9.72199E-001	  1.14750E+000	  1.11600E+000
  1.25000E-004	  9.69486E-001	  9.79701E-001	  1.03829E+000	  1.09145E+000
  1.37500E-004	  9.64518E-001	  9.57742E-001	  9.83687E-001	  1.07263E+000
  1.50000E-004	  9.79420E-001	  9.80868E-001	  9.89224E-001	  1.05085E+000
  1.62500E-004	  9.63168E-001	  9.56398E-001	  9.59441E-001	  1.05727E+000
  1.75000E-004	  9.68257E-001	  9.54920E-001	  9.50296E-001	  1.03949E+000
  1.87500E-004	  9.77743E-001	  9.76659E-001	  9.63072E-001	  1.05344E+000
  2.00000E-004	  9.76868E-001	  9.79219E-001	  9.52491E-001	  1.03126E+000
  2.25000E-004	  9.65475E-001	  9.75960E-001	  9.69392E-001	  1.01850E+000
  2.50000E-004	  9.57276E-001	  9.52840E-001	  9.47286E-001	  1.02753E+000
  2.75000E-004	  9.61000E-001	  9.64194E-001	  9.41540E-001	  1.01350E+000
  3.00000E-004	  9.60770E-001	  9.52035E-001	  9.45376E-001	  1.00593E+000
  3.25000E-004	  9.60295E-001	  9.59335E-001	  9.66458E-001	  1.00646E+000
  3.50000E-004	  9.63178E-001	  9.65743E-001	  9.45815E-001	  1.00458E+000
  3.75000E-004	  9.58553E-001	  9.49166E-001	  9.63365E-001	  9.87337E-001
  4.00000E-004	  9.65308E-001	  9.67384E-001	  9.53142E-001	  9.84219E-001
  4.50000E-004	  9.52596E-001	  9.51954E-001	  9.44323E-001	  9.84426E-001
  5.00000E-004	  9.50023E-001	  9.44313E-001	  9.49910E-001	  9.88506E-001
  5.50000E-004	  9.49550E-001	  9.44565E-001	  9.49948E-001	  9.80611E-001
  6.00000E-004	  9.55393E-001	  9.49510E-001	  9.44861E-001	  9.76692E-001
  6.50000E-004	  9.43369E-001	  9.40611E-001	  9.50851E-001	  9.76045E-001
  7.00000E-004	  9.48257E-001	  9.39099E-001	  9.39043E-001	  9.60811E-001
  7.50000E-004	  9.42102E-001	  9.42189E-001	  9.62428E-001	  9.64356E-001
  8.00000E-004	  9.31865E-001	  9.28753E-001	  9.46287E-001	  9.68789E-001
  9.00000E-004	  9.35081E-001	  9.31461E-001	  9.34245E-001	  9.51532E-001
  1.00000E-003	  9.29230E-001	  9.28030E-001	  9.30319E-001	  9.55129E-001
  1.10000E-003	  9.25824E-001	  9.24086E-001	  9.19100E-001	  9.54216E-001
  1.20000E-003	  9.21364E-001	  9.21504E-001	  9.28975E-001	  9.46011E-001
  1.30000E-003	  9.15982E-001	  9.12454E-001	  9.21354E-001	  9.40980E-001
  1.40000E-003	  9.13472E-001	  9.14894E-001	  9.14676E-001	  9.32760E-001
  1.50000E-003	  8.99101E-001	  8.98123E-001	  9.11692E-001	  9.34440E-001
  1.60000E-003	  9.01194E-001	  8.99849E-001	  9.09422E-001	  9.30031E-001
  1.80000E-003	  8.95621E-001	  8.90850E-001	  8.95382E-001	  9.16724E-001
  2.00000E-003	  8.92000E-001	  8.92975E-001	  8.92257E-001	  9.04464E-001
  2.20000E-003	  8.80332E-001	  8.82130E-001	  8.78387E-001	  8.97741E-001
  2.40000E-003	  8.73151E-001	  8.71626E-001	  8.71307E-001	  8.96698E-001
  2.60000E-003	  8.68538E-001	  8.67759E-001	  8.67051E-001	  8.81300E-001
  2.80000E-003	  8.61822E-001	  8.63643E-001	  8.60437E-001	  8.84384E-001
  3.00000E-003	  8.53942E-001	  8.53862E-001	  8.51551E-001	  8.69343E-001
  3.20000E-003	  8.47438E-001	  8.46068E-001	  8.45218E-001	  8.59687E-001
  3.60000E-003	  8.34058E-001	  8.33089E-001	  8.31020E-001	  8.45701E-001
  4.00000E-003	  8.17991E-001	  8.17108E-001	  8.25980E-001	  8.33955E-001
  4.40000E-003	  8.03999E-001	  8.00208E-001	  8.09212E-001	  8.20167E-001
  4.80000E-003	  7.91696E-001	  7.90583E-001	  7.95525E-001	  8.07276E-001
  5.20000E-003	  7.79312E-001	  7.81308E-001	  7.85672E-001	  7.97094E-001
  5.60000E-003	  7.66318E-001	  7.64883E-001	  7.70999E-001	  7.78029E-001
  6.00000E-003	  7.54101E-001	  7.55102E-001	  7.67454E-001	  7.66687E-001
  6.40000E-003	  7.42961E-001	  7.42086E-001	  7.50108E-001	  7.54245E-001
  7.20000E-003	  7.18693E-001	  7.19813E-001	  7.26112E-001	  7.31839E-001
  8.00000E-003	  6.96219E-001	  6.96823E-001	  7.00986E-001	  7.06246E-001
  8.80000E-003	  6.75987E-001	  6.77575E-001	  6.82409E-001	  6.85497E-001
  9.60000E-003	  6.53967E-001	  6.55182E-001	  6.61027E-001	  6.67530E-001
  1.04000E-002	  6.33733E-001	  6.34717E-001	  6.39076E-001	  6.42758E-001
  1.12000E-002	  6.13049E-001	  6.13877E-001	  6.21023E-001	  6.20993E-001
  1.20000E-002	  5.95471E-001	  5.94766E-001	  6.02361E-001	  6.03662E-001
  1.28000E-002	  5.77077E-001	  5.76596E-001	  5.84193E-001	  5.86264E-001
  1.44000E-002	  5.42223E-001	  5.41455E-001	  5.48765E-001	  5.52863E-001
  1.60000E-002	  5.08596E-001	  5.08730E-001	  5.17455E-001	  5.18976E-001
  1.76000E-002	  4.78452E-001	  4.77565E-001	  4.86811E-001	  4.88168E-001
  1.92000E-002	  4.50907E-001	  4.50547E-001	  4.56935E-001	  4.57391E-001
  2.08000E-002	  4.23266E-001	  4.21656E-001	  4.29746E-001	  4.31446E-001
  2.24000E-002	  3.98673E-001	  3.98191E-001	  4.05149E-001	  4.05993E-001
  2.40000E-002	  3.75511E-001	  3.74510E-001	  3.79690E-001	  3.80641E-001
  2.56000E-002	  3.53582E-001	  3.53520E-001	  3.57934E-001	  3.60617E-001
  2.88000E-002	  3.14152E-001	  3.13777E-001	  3.17441E-001	  3.18817E-001
  3.20000E-002	  2.78652E-001	  2.78542E-001	  2.82048E-001	  2.84372E-001
  3.52000E-002	  2.47803E-001	  2.48167E-001	  2.49789E-001	  2.52310E-001
  3.84000E-002	  2.19605E-001	  2.18855E-001	  2.22413E-001	  2.24930E-001
  4.16000E-002	  1.97100E-001	  1.97115E-001	  1.98616E-001	  2.00578E-001
  4.48000E-002	  1.75639E-001	  1.75398E-001	  1.77780E-001	  1.77362E-001
  4.80000E-002	  1.57003E-001	  1.57146E-001	  1.57832E-001	  1.59595E-001
  5.12000E-002	  1.41143E-001	  1.40318E-001	  1.41662E-001	  1.43486E-001
  5.76000E-002	  1.12568E-001	  1.12522E-001	  1.12969E-001	  1.14929E-001
  6.40000E-002	  9.09803E-002	  9.15469E-002	  9.20070E-002	  9.22083E-002
  7.04000E-002	  7.33714E-002	  7.32064E-002	  7.35813E-002	  7.41555E-002
  7.68000E-002	  6.01618E-002	  6.03578E-002	  6.07130E-002	  5.94026E-002
  8.32000E-002	  4.82843E-002	  4.88143E-002	  4.88767E-002	  4.80621E-002
  8.96000E-002	  3.98616E-002	  3.96494E-002	  3.95468E-002	  4.00083E-002
  9.60000E-002	  3.20446E-002	  3.19715E-002	  3.17970E-002	  3.23327E-002
  1.02400E-001	  2.65696E-002	  2.68621E-002	  2.68842E-002	  2.66963E-002
  1.15200E-001	  1.77792E-002	  1.81665E-002	  1.80931E-002	  1.77161E-002
  1.28000E-001	  1.23089E-002	  1.21230E-002	  1.27210E-002	  1.25035E-002
  1.40800E-001	  8.83857E-003	  9.05347E-003	  9.11383E-003	  8.97476E-003
  1.53600E-001	  6.44615E-003	  7.02717E-003	  6.74184E-003	  6.18987E-003
  1.66400E-001	  5.39555E-003	  5.83258E-003	  4.48181E-003	  5.12873E-003
  1.79200E-001	  4.03187E-003	  4.23489E-003	  3.70149E-003	  4.21954E-003
  1.92000E-001	  3.58906E-003	  4.82045E-003	  2.83482E-003	  2.33833E-003
  2.04800E-001	  2.49078E-003	  3.55361E-003	  2.49965E-003	  2.16793E-003
  2.30400E-001	  1.70675E-003	  1.96457E-003	  1.96792E-003	  2.08811E-003
  2.56000E-001	  1.34619E-003	  1.15190E-003	  6.96088E-004	  1.39072E-003
  2.81600E-001	  1.03339E-003	  1.00179E-003	  6.98705E-005	  2.00774E-003
  3.07200E-001	  7.15768E-004	  4.64542E-004	  4.62527E-004	  9.80598E-004
  3.32800E-001	  6.38633E-004	  6.13045E-004	  8.35401E-004	  4.44194E-004
  3.58400E-001	  2.67347E-004	  5.76783E-004	  4.03331E-004	 -4.54302E-005
  3.84000E-001	  1.97975E-004	  3.53607E-004	  2.32760E-004	 -1.22461E-004
  4.09600E-001	  2.46227E-004	  1.09851E-004	 -3.06203E-005	  3.00304E-004
  4.60800E-001	  1.40367E-004	  6.57950E-004	  3.96629E-005	 -1.53272E-004
  5.12000E-001	  4.53363E-005	 -1.67379E-004	 -3.91856E-004	  1.61618E-004
  5.63200E-001	 -3.27103E-004	  3.00825E-004	 -1.15227E-004	  3.05183E-006
  6.14400E-001	  7.17709E-005	  5.86367E-004	  3.58203E-004	  2.27083E-004
  6.65600E-001	 -3.77338E-005	  8.43779E-005	 -1.48105E-004	  8.96195E-005
  7.16800E-001	 -3.05881E-004	 -1.64798E-004	 -8.62774E-004	  2.02348E-004
  7.68000E-001	 -5.20082E-004	 -6.02462E-004	 -5.21580E-004	 -5.71982E-004
  8.19200E-001	 -8.71712E-004	 -4.76607E-004	 -6.51210E-004	 -1.04518E-003
  9.21600E-001	 -3.17468E-004	  4.30229E-005	 -1.51674E-004	 -4.07248E-004
  1.02400E+000	 -5.38888E-004	 -8.42446E-004	 -3.45763E-004	 -5.74320E-004
  1.12640E+000	 -2.45805E-004	 -2.07304E-004	  1.55697E-004	 -1.89094E-004
  1.22880E+000	  2.30439E-004	  1.52123E-004	  2.19617E-006	  3.80144E-004
  1.33120E+000	  1.39521E-004	  3.23372E-004	  6.52786E-005	  5.07263E-005
  1.43360E+000	 -3.82081E-004	 -4.49143E-004	  1.96141E-004	 -7.31023E-004
  1.53600E+000	  1.45592E-004	  1.83238E-004	 -4.96104E-004	  6.82417E-004
  1.63840E+000	 -6.65777E-005	 -4.41337E-005	 -3.80887E-004	  3.33716E-004
  1.84320E+000	 -1.27005E-004	 -1.51792E-004	 -4.68859E-004	 -7.39669E-005
  2.04800E+000	  1.08205E-004	  5.69436E-005	  2.83475E-004	  9.27552E-005
  2.25280E+000	  5.17385E-005	  9.91437E-005	 -7.16645E-005	  8.43434E-005
  2.45760E+000	 -1.82856E-004	 -1.80096E-005	 -6.20757E-004	  9.77624E-005
  2.66240E+000	  1.50954E-006	 -1.56476E-005	  1.32444E-004	  4.68072E-005
  2.86720E+000	 -5.74608E-005	 -5.95413E-005	 -8.44374E-005	 -2.42297E-005
  3.07200E+000	 -2.75175E-004	 -5.32387E-004	 -1.73226E-004	 -2.90550E-004
  3.27680E+000	  1.08234E-004	  1.11496E-004	  2.00099E-004	  9.77223E-005
  3.68640E+000	 -7.62739E-006	  6.51081E-005	  1.65921E-004	 -6.43516E-005
  4.09600E+000	  4.62702E-004	  5.46225E-004	  3.58770E-004	  3.73914E-004
  4.50560E+000	 -2.11466E-004	 -3.80600E-004	 -3.56430E-004	 -1.96306E-004
  4.91520E+000	  8.59181E-005	 -7.44250E-005	  2.59577E-005	  1.60769E-005
  5.32480E+000	  5.01640E-004	  4.70891E-004	  7.08916E-004	  5.05419E-004
  5.73440E+000	 -1.10315E-005	 -3.72633E-005	  6.41841E-005	 -1.22580E-004
  6.14400E+000	  1.39128E-004	  2.46851E-004	  1.91580E-004	  8.41977E-005
  6.55360E+000	 -8.76055E-005	 -1.09804E-004	  8.44176E-006	 -1.98786E-004
  7.37280E+000	  5.46170E-005	 -3.09146E-005	  3.61844E-005	  6.45413E-005
  8.19200E+000	  1.26069E-004	  2.29562E-004	  1.68701E-004	  2.01955E-004
  9.01120E+000	  2.76127E-005	 -1.65773E-006	  1.15285E-004	 -6.32556E-005
  9.83040E+000	  4.52800E-006	  1.14105E-005	 -1.21146E-005	  6.70338E-005
  1.06496E+001	  9.85899E-005	  4.81030E-005	 -5.48252E-005	  1.33421E-004
  1.14688E+001	 -5.22604E-005	 -5.13056E-005	  6.19947E-005	 -9.99358E-006
  1.22880E+001	  1.17218E-004	 -1.39986E-005	  6.17573E-005	  1.35914E-004
  1.31072E+001	 -1.89859E-005	  9.55072E-007	 -7.77631E-005	  5.53816E-007
  1.47456E+001	 -4.14609E-005	 -1.84075E-004	 -1.51506E-007	 -9.37656E-005
  1.63840E+001	  8.79157E-006	  9.05212E-005	  2.76172E-005	 -3.52158E-005
  1.80224E+001	  6.81692E-005	 -2.74429E-005	  1.20444E-004	  2.61748E-005
  1.96608E+001	  2.08135E-004	  2.08527E-004	  3.51556E-005	  2.93894E-004
  2.12992E+001	  9.51636E-005	  1.13668E-004	  7.46606E-005	 -9.40161E-006
  2.29376E+001	  2.65037E-004	  3.04423E-004	  3.02619E-004	  8.19594E-005
  2.45760E+001	  1.53419E-004	  1.65562E-004	  2.43098E-004	  1.22171E-004
  2.62144E+001	  6.64620E-005	  1.14718E-004	  7.07756E-005	  1.21338E-004
  2.94912E+001	 -1.25813E-004	 -6.37535E-005	 -8.81294E-005	 -1.29185E-004
  3.27680E+001	  9.58009E-005	  8.79808E-005	  5.92690E-006	  1.75427E-004
  3.60448E+001	 -6.49778E-005	 -1.00276E-004	  1.49340E-005	 -3.66570E-005
  3.93216E+001	  8.22255E-005	  8.15476E-005	  3.67825E-005	  1.19143E-004
  4.25984E+001	 -1.45352E-006	  2.65822E-005	  5.60606E-005	  8.39362E-006
  4.58752E+001	 -2.45999E-006	  6.92725E-005	  3.94864E-005	 -2.09017E-005
  4.91520E+001	  2.13427E-004	  1.14898E-004	  2.30718E-004	  2.28897E-004
  5.24288E+001	  1.68869E-004	  1.69118E-004	  1.64305E-004	  2.02700E-004
  5.89824E+001	  3.62141E-005	  5.32977E-005	  2.82713E-005	  2.76040E-005
  6.55360E+001	 -1.34829E-004	 -1.94073E-004	 -1.52208E-004	 -1.59350E-004
  7.20896E+001	 -1.14311E-004	 -1.15496E-004	 -1.33867E-004	 -1.30314E-004
  7.86432E+001	  2.81930E-005	  5.20814E-005	  1.68334E-006	  9.59104E-005
  8.51968E+001	  3.06313E-005	  3.97066E-005	  4.30672E-005	  4.55638E-005
  9.17504E+001	 -3.15219E-006	 -2.54747E-005	  3.91311E-005	 -4.08589E-005
  9.83040E+001	  1.06796E-005	 -2.20578E-005	 -2.25046E-005	  3.48631E-005
  1.04858E+002	  1.72769E-006	  2.47201E-006	  2.01325E-005	 -1.90553E-005
  1.17965E+002	 -7.32087E-006	 -6.15475E-005	 -3.94809E-007	 -3.68506E-005
  1.31072E+002	  1.31806E-005	  1.65912E-005	  3.53651E-006	  3.20428E-005
  1.44179E+002	  1.67328E-005	 -5.05337E-006	  3.82906E-006	  2.27264E-005
  1.57286E+002	 -3.10825E-005	 -6.65541E-005	 -6.45083E-005	 -1.28213E-005
  1.70394E+002	  2.13380E-006	 -6.82860E-006	  2.42751E-006	  1.92313E-005
  1.83501E+002	  9.62244E-006	 -2.95709E-006	 -1.37884E-006	  2.42373E-005
  1.96608E+002	  3.09913E-005	  3.30837E-005	  2.51848E-005	  7.95925E-005
  2.09715E+002	  2.05313E-005	  2.40450E-005	  3.74712E-005	  1.54310E-005
  2.35930E+002	 -4.73494E-006	  2.53605E-006	  3.12460E-005	 -1.83189E-005
  2.62144E+002	 -1.08932E-005	  2.82751E-005	 -1.78375E-005	  1.57880E-005
  2.88358E+002	  1.26804E-005	 -6.09107E-006	  1.22764E-005	  1.62221E-005
  3.14573E+002	  1.29992E-006	  3.10574E-005	 -1.98352E-006	  5.99149E-006
  3.40787E+002	  1.24268E-005	  5.67123E-006	  1.39938E-005	  3.34316E-005
  3.67002E+002	 -4.19324E-006	  2.36972E-006	  3.61623E-005	 -1.62311E-005
  3.93216E+002	 -1.43932E-005	 -1.17175E-005	 -3.71153E-005	 -5.42673E-006
  4.19430E+002	 -1.08216E-005	 -2.71808E-006	 -2.78599E-005	 -4.44760E-006
  4.71859E+002	  1.08754E-005	  1.07895E-005	 -9.07737E-006	  8.86171E-006
  5.24288E+002	 -1.50773E-005	 -2.43573E-005	 -4.92123E-006	 -1.57663E-005
  5.76717E+002	  1.53149E-005	  2.90245E-005	 -3.90692E-006	  3.14450E-005
  6.29146E+002	 -7.95655E-006	 -1.08501E-007	 -1.57032E-005	 -9.34578E-006
  6.81574E+002	  1.03510E-005	  9.12252E-007	  9.00421E-006	  9.02571E-006
  7.34003E+002	 -1.84606E-005	 -1.68017E-005	 -2.74886E-005	 -3.42541E-006
  7.86432E+002	 -1.29193E-006	 -1.11832E-005	 -1.18301E-006	 -7.44180E-006
  8.38861E+002	  1.60086E-005	  1.38481E-005	  1.16302E-005	  2.42237E-005
  9.43718E+002	  1.18275E-005	  6.91330E-006	  1.47998E-005	  7.65842E-006
  1.04858E+003	  8.94265E-006	  5.35662E-006	  2.96035E-006	  6.65346E-006
  1.15343E+003	  1.63365E-005	  2.33877E-005	  1.79766E-005	  1.82048E-005
  1.25829E+003	 -1.08095E-005	 -1.62045E-005	 -1.20083E-005	 -1.26917E-005
  1.36315E+003	  2.57486E-006	  1.25629E-005	  1.19576E-005	 -1.80369E-005
  1.46801E+003	 -1.40107E-005	 -1.85024E-005	 -8.39802E-006	 -1.07781E-005
  1.57286E+003	  3.18982E-005	  3.79096E-005	  4.39892E-005	  1.65138E-005
  1.67772E+003	  7.07150E-006	  1.72388E-005	  8.16370E-006	 -3.12466E-006
  1.88744E+003	  1.98632E-005	  2.95944E-005	  1.33146E-005	  1.51625E-005
  2.09715E+003	  7.58336E-006	  1.50629E-006	  8.15365E-006	  1.48487E-005
  2.30687E+003	  1.04198E-005	  3.32209E-006	  7.27733E-006	  1.73131E-005
  2.51658E+003	  4.90454E-006	  5.10099E-006	 -1.34386E-006	  9.91419E-006
  2.72630E+003	  1.10839E-005	  1.51894E-005	  8.97029E-006	  8.10497E-006
  2.93601E+003	  4.05169E-006	  4.48141E-006	  8.00779E-006	 -1.37227E-006
  3.14573E+003	  4.70392E-006	  1.23519E-006	  1.19740E-005	  1.18692E-005
  3.35544E+003	 -8.87650E-006	 -9.86154E-006	  2.09831E-006	 -1.13440E-005
  3.77487E+003	  7.24443E-006	  1.34532E-005	  1.26021E-005	  1.08349E-006
  4.19430E+003	  6.83856E-006	  1.48728E-005	  5.53141E-006	  8.48406E-006
  4.61373E+003	  6.37500E-006	  8.42307E-006	  3.19690E-006	  8.41935E-006
  5.03317E+003	  1.02788E-005	  2.02072E-005	  1.41163E-005	  9.74289E-006
  5.45260E+003	 -2.53456E-006	 -4.74920E-006	 -2.19850E-006	 -9.93976E-006
  5.87203E+003	  1.23177E-006	  2.51182E-007	  4.99208E-006	 -1.59612E-006
  6.29146E+003	 -4.68770E-006	 -4.37958E-006	 -4.89439E-007	 -1.29506E-005
  6.71089E+003	 -9.13331E-006	 -5.21689E-006	 -6.72601E-006	 -7.85237E-006
  7.54975E+003	  9.11519E-006	  9.91048E-006	  1.37589E-005	  6.10050E-006
  8.38861E+003	  4.26369E-007	  5.69820E-006	 -2.08166E-006	  3.68550E-006
  9.22747E+003	 -7.04778E-006	 -3.75654E-006	 -1.47554E-005	 -3.35118E-006
  1.00663E+004	  9.30278E-006	  7.90765E-006	  5.84034E-006	  3.65939E-006
  1.09052E+004	  2.06543E-007	 -2.96120E-006	  6.44280E-006	  4.03008E-007
  1.17441E+004	 -3.25463E-006	  2.25306E-006	 -2.41664E-006	 -8.36240E-007

"Count Rate"
       0.27344	     149.78590	     174.46869	     149.78590	     174.46869
       0.54688	     149.78224	     173.70821	     149.78224	     173.70821
       0.82031	     154.74731	     179.12665	     154.74731	     179.12665
       1.09375	     151.59204	     177.22179	     151.59204	     177.22179
       1.36719	     153.68338	     176.79767	     153.68338	     176.79767
       1.64063	     150.41841	     176.25290	     150.41841	     176.25290
       1.91406	     152.22823	     174.85991	     152.22823	     174.85991
       2.18750	     153.72359	     177.05360	     153.72359	     177.05360
       2.46094	     152.15144	     173.86908	     152.15144	     173.86908
       2.73438	     152.30499	     174.66612	     152.30499	     174.66612
       3.00781	     153.52982	     176.38452	     153.52982	     176.38452
       3.28125	     153.02161	     178.10658	     153.02161	     178.10658
       3.55469	     153.97221	     178.85243	     153.97221	     178.85243
       3.82813	     153.04355	     177.15964	     153.04355	     177.15964
       4.10156	     155.65770	     177.23276	     155.65770	     177.23276
       4.37500	     155.02153	     179.21805	     155.02153	     179.21805
       4.64844	     152.50975	     175.37543	     152.50975	     175.37543
       4.92188	     152.34157	     175.50705	     152.34157	     175.50705
       5.19531	     153.52615	     176.27118	     153.52615	     176.27118
       5.46875	     152.73643	     175.71910	     152.73643	     175.71910
       5.74219	     152.71449	     175.25476	     152.71449	     175.25476
       6.01563	     151.80775	     174.05554	     151.80775	     174.05554
       6.28906	     151.21912	     176.23462	     151.21912	     176.23462
       6.56250	     151.92842	     175.74104	     151.92842	     175.74104
       6.83594	     151.60667	     174.36998	     151.60667	     174.36998
       7.10938	     154.96669	     179.02061	     154.96669	     179.02061
       7.38281	     152.70718	     174.99518	     152.70718	     174.99518
       7.65625	     154.00877	     177.01704	     154.00877	     177.01704
       7.92969	     149.87730	     172.83073	     149.87730	     172.83073
       8.20313	     153.94296	     176.08472	     153.94296	     176.08472
       8.47656	     153.30679	     175.52898	     153.30679	     175.52898
       8.75000	     152.67793	     178.89996	     152.67793	     178.89996
       9.02344	     150.98146	     175.38638	     150.98146	     175.38638
       9.29688	     151.92476	     175.28036	     151.92476	     175.28036
       9.57031	     154.53893	     177.02069	     154.53893	     177.02069
       9.84375	     153.28120	     174.57106	     153.28120	     174.57106
      10.11719	     153.45303	     174.48697	     153.45303	     174.48697
      10.39063	     153.62854	     177.62762	     153.62854	     177.62762
      10.66406	     151.11308	     173.48885	     151.11308	     173.48885
      10.93750	     150.83522	     174.87819	     150.83522	     174.87819
      11.21094	     154.44751	     179.46667	     154.44751	     179.46667
      11.48438	     154.93379	     177.66785	     154.93379	     177.66785
      11.75781	     152.37813	     175.22186	     152.37813	     175.22186
      12.03125	     153.20442	     176.16516	     153.20442	     176.16516
      12.30469	     152.92654	     176.38818	     152.92654	     176.38818
      12.57813	     154.46579	     178.76103	     154.46579	     178.76103
      12.85156	     155.23724	     178.07367	     155.23724	     178.07367
      13.12500	     154.16965	     178.54898	     154.16965	     178.54898
      13.39844	     153.94662	     177.43019	     153.94662	     177.43019
      13.67188	     154.37439	     177.24738	     154.37439	     177.24738
      13.94531	     155.28477	     177.61299	     155.28477	     177.61299
      14.21875	     150.69629	     172.49435	     150.69629	     172.49435
      14.49219	     153.39819	     174.74657	     153.39819	     174.74657
      14.76563	     155.90999	     178.36252	     155.90999	     178.36252
      15.03906	     158.04518	     180.86699	     158.04518	     180.86699
      15.31250	     153.88446	     177.66052	     153.88446	     177.66052
      15.58594	     151.87357	     174.28223	     151.87357	     174.28223
      15.85938	     151.87723	     174.53450	     151.87723	     174.53450
      16.13281	     152.31963	     175.71544	     152.31963	     175.71544
      16.40625	     150.50616	     175.52898	     150.50616	     175.52898
      16.67969	     154.48042	     176.94026	     154.48042	     176.94026
      16.95313	     152.84612	     177.53987	     152.84612	     177.53987
      17.22656	     152.74739	     175.73372	     152.74739	     175.73372
      17.50000	     152.77664	     177.21448	     152.77664	     177.21448
      17.77344	     152.01251	     175.33521	     152.01251	     175.33521
      18.04688	     153.54443	     175.04637	     153.54443	     175.04637
      18.32031	     152.73277	     178.81953	     152.73277	     178.81953
      18.59375	     154.74367	     177.41556	     154.74367	     177.41556
      18.86719	     150.64145	     172.79417	     150.64145	     172.79417
      19.14063	     154.35611	     177.34610	     154.35611	     177.34610
      19.41406	     152.64502	     176.51981	     152.64502	     176.51981
      19.68750	     152.41833	     176.74649	     152.41833	     176.74649
      19.96094	     153.67241	     176.53442	     153.67241	     176.53442
      20.23438	     151.71271	     175.46317	     151.71271	     175.46317
      20.50781	     151.96132	     175.61673	     151.96132	     175.61673
      20.78125	     153.76016	     175.79222	     153.76016	     175.79222
      21.05469	     151.84067	     173.16344	     151.84067	     173.16344
      21.32813	     153.63950	     174.83066	     153.63950	     174.83066
      21.60156	     151.25568	     176.01891	     151.25568	     176.01891
      21.87500	     154.34514	     176.95854	     154.34514	     176.95854
      22.14844	     154.61205	     178.58554	     154.61205	     178.58554
      22.42188	     153.02892	     174.73193	     153.02892	     174.73193
      22.69531	     154.46945	     176.26387	     154.46945	     176.26387
      22.96875	     153.99780	     176.35893	     153.99780	     176.35893
      23.24219	     148.36365	     172.63330	     148.36365	     172.63330
      23.51563	     151.77119	     175.32057	     151.77119	     175.32057
      23.78906	     153.44939	     178.65866	     153.44939	     178.65866
      24.06250	     152.73643	     175.17799	     152.73643	     175.17799
      24.33594	     151.03265	     173.73380	     151.03265	     173.73380
      24.60938	     154.32686	     176.59659	     154.32686	     176.59659
      24.88281	     152.12585	     176.50153	     152.12585	     176.50153
      25.15625	     156.41087	     177.78484	     156.41087	     177.78484
      25.42969	     153.89178	     176.74283	     153.89178	     176.74283
      25.70313	     152.63405	     175.53264	     152.63405	     175.53264
      25.97656	     154.54623	     176.79036	     154.54623	     176.79036
      26.25000	     151.35805	     176.89273	     151.35805	     176.89273
      26.52344	     154.30493	     179.12300	     154.30493	     179.12300
      26.79688	     152.86806	     175.42296	     152.86806	     175.42296
      27.07031	     152.55362	     175.03174	     152.55362	     175.03174
      27.34375	     153.87715	     178.64038	     153.87715	     178.64038
      27.61719	     152.80589	     176.56734	     152.80589	     176.56734
      27.89063	     150.85716	     175.24745	     150.85716	     175.24745
      28.16406	     150.93028	     175.82878	     150.93028	     175.82878
      28.43750	     154.87529	     177.45944	     154.87529	     177.45944
      28.71094	     154.70711	     177.53256	     154.70711	     177.53256
      28.98438	     153.15689	     178.43929	     153.15689	     178.43929
      29.25781	     153.89543	     178.37347	     153.89543	     178.37347
      29.53125	     153.43842	     176.46130	     153.43842	     176.46130
      29.80469	     153.52615	     176.20172	     153.52615	     176.20172
      30.07813	     152.88998	     178.24185	     152.88998	     178.24185
      30.35156	     151.19717	     173.06107	     151.19717	     173.06107
      30.62500	     151.36171	     175.22917	     151.36171	     175.22917
      30.89844	     151.94304	     176.15419	     151.94304	     176.15419
      31.17188	     153.31776	     175.80685	     153.31776	     175.80685
      31.44531	     153.43111	     178.49048	     153.43111	     178.49048
      31.71875	     152.69986	     176.60390	     152.69986	     176.60390
      31.99219	     154.28664	     177.71172	     154.28664	     177.71172
      32.26563	     152.71814	     177.63860	     152.71814	     177.63860
      32.53906	     150.84619	     175.18895	     150.84619	     175.18895
      32.81250	     154.64861	     177.33147	     154.64861	     177.33147
      33.08594	     153.23001	     177.29857	     153.23001	     177.29857
      33.35938	     152.24651	     175.47049	     152.24651	     175.47049
      33.63281	     153.66144	     176.79767	     153.66144	     176.79767
      33.90625	     156.82768	     180.82677	     156.82768	     180.82677
      34.17969	     151.30321	     175.11949	     151.30321	     175.11949
      34.45313	     153.03624	     173.93123	     153.03624	     173.93123
      34.72656	     153.21173	     176.44302	     153.21173	     176.44302
      35.00000	     152.65234	     175.48145	     152.65234	     175.48145
      35.27344	     151.05824	     174.04823	     151.05824	     174.04823
      35.54688	     151.34709	     175.61673	     151.34709	     175.61673
      35.82031	     151.73099	     178.59651	     151.73099	     178.59651
      36.09375	     155.34328	     179.40086	     155.34328	     179.40086
      36.36719	     153.19710	     173.51443	     153.19710	     173.51443
      36.64063	     151.59570	     175.15971	     151.59570	     175.15971
      36.91406	     153.39088	     176.40280	     153.39088	     176.40280
      37.18750	     154.54988	     176.84520	     154.54988	     176.84520
      37.46094	     150.50616	     171.61322	     150.50616	     171.61322
      37.73438	     155.33597	     176.28215	     155.33597	     176.28215
      38.00781	     152.20262	     178.00421	     152.20262	     178.00421
      38.28125	     152.69986	     174.13963	     152.69986	     174.13963
      38.55469	     153.41647	     177.22910	     153.41647	     177.22910
      38.82813	     153.61757	     176.53442	     153.61757	     176.53442
      39.10156	     152.08197	     177.06091	     152.08197	     177.06091
      39.37500	     153.21904	     175.39735	     153.21904	     175.39735
      39.64844	     151.97595	     176.09569	     151.97595	     176.09569
      39.92188	     157.07996	     179.54346	     157.07996	     179.54346
      40.19531	     154.18062	     177.79214	     154.18062	     177.79214
      40.46875	     152.66696	     176.94392	     152.66696	     176.94392
      40.74219	     153.31044	     177.84334	     153.31044	     177.84334
      41.01563	     153.84790	     179.22171	     153.84790	     179.22171
      41.28906	     155.79665	     178.40273	     155.79665	     178.40273
      41.56250	     154.30493	     177.92012	     154.30493	     177.92012
      41.83594	     152.31232	     175.24745	     152.31232	     175.24745
      42.10938	     154.02339	     175.77760	     154.02339	     175.77760
      42.38281	     153.32141	     174.17986	     153.32141	     174.17986
      42.65625	     153.44206	     173.56197	     153.44206	     173.56197
      42.92969	     153.53712	     176.40280	     153.53712	     176.40280
      43.20313	     152.27940	     176.52711	     152.27940	     176.52711
      43.47656	     153.47131	     177.10478	     153.47131	     177.10478
      43.75000	     154.28299	     176.59659	     154.28299	     176.59659
      44.02344	     156.95930	     180.70245	     156.95930	     180.70245
      44.29688	     152.17703	     176.49055	     152.17703	     176.49055
      44.57031	     151.92842	     176.49786	     151.92842	     176.49786
      44.84375	     154.65227	     177.11942	     154.65227	     177.11942
      45.11719	     154.43654	     175.53264	     154.43654	     175.53264
      45.39063	     152.90462	     176.28215	     152.90462	     176.28215
      45.66406	     154.66322	     178.38445	     154.66322	     178.38445
      45.93750	     152.70352	     175.56920	     152.70352	     175.56920
      46.21094	     151.79680	     177.26201	     151.79680	     177.26201
      46.48438	     155.18607	     178.39908	     155.18607	     178.39908
      46.75781	     153.58832	     175.92751	     153.58832	     175.92751
      47.03125	     153.28120	     176.44302	     153.28120	     176.44302
      47.30469	     153.28851	     175.11583	     153.28851	     175.11583
      47.57813	     155.14951	     177.63493	     155.14951	     177.63493
      47.85156	     150.73651	     173.37550	     150.73651	     173.37550
      48.12500	     153.85521	     176.79767	     153.85521	     176.79767
      48.39844	     156.55713	     178.57091	     156.55713	     178.57091
      48.67188	     153.44572	     174.79410	     153.44572	     174.79410
      48.94531	     152.24651	     176.63680	     152.24651	     176.63680
      49.21875	     154.71808	     178.07733	     154.71808	     178.07733
      49.49219	     152.02713	     174.94400	     152.02713	     174.94400
      49.76563	     150.83156	     176.25290	     150.83156	     176.25290
      50.03906	     156.92274	     180.60739	     156.92274	     180.60739
      50.31250	     155.06541	     180.25275	     155.06541	     180.25275
      50.58594	     153.80768	     177.16695	     153.80768	     177.16695
      50.85938	     154.43654	     176.28215	     154.43654	     176.28215
      51.13281	     152.75105	     175.87631	     152.75105	     175.87631
      51.40625	     155.33231	     179.63852	     155.33231	     179.63852
      51.67969	     152.76933	     177.09383	     152.76933	     177.09383
      51.95313	     151.26299	     175.89825	     151.26299	     175.89825
      52.22656	     153.32872	     177.30222	     153.32872	     177.30222
      52.50000	     155.47124	     182.22708	     155.47124	     182.22708
      52.77344	     153.50056	     176.74649	     153.50056	     176.74649
      53.04688	     152.18069	     176.81961	     152.18069	     176.81961
      53.32031	     154.57913	     179.43376	     154.57913	     179.43376
      53.59375	     151.59204	     175.65695	     151.59204	     175.65695
      53.86719	     156.19882	     180.10651	     156.19882	     180.10651
      54.14063	     155.37617	     180.65858	     155.37617	     180.65858
      54.41406	     156.71800	     179.81401	     156.71800	     179.81401
      54.68750	     152.61577	     176.47227	     152.61577	     176.47227
      54.96094	     152.32329	     175.32057	     152.32329	     175.32057
      55.23438	     152.51706	     175.15971	     152.51706	     175.15971
      55.50781	     153.78940	     176.81595	     153.78940	     176.81595
      55.78125	     152.82417	     177.53256	     152.82417	     177.53256
      56.05469	     153.54079	     175.75566	     153.54079	     175.75566
      56.32813	     155.87341	     178.90363	     155.87341	     178.90363
      56.60156	     154.59741	     176.92198	     154.59741	     176.92198
      56.87500	     152.15144	     177.94205	     152.15144	     177.94205
      57.14844	     151.81142	     174.16158	     151.81142	     174.16158
      57.42188	     153.46034	     176.84886	     153.46034	     176.84886
      57.69531	     155.09465	     177.40460	     155.09465	     177.40460
      57.96875	     152.20262	     175.79953	     152.20262	     175.79953
      58.24219	     153.73091	     176.88907	     153.73091	     176.88907
      58.51563	     152.95580	     180.50502	     152.95580	     180.50502
      58.78906	     151.60301	     176.14322	     151.60301	     176.14322
      59.06250	     154.31955	     177.76289	     154.31955	     177.76289
      59.33594	     154.61569	     178.21260	     154.61569	     178.21260
      59.60938	     154.99594	     177.74828	     154.99594	     177.74828
      59.88281	     152.61577	     175.29865	     152.61577	     175.29865
      60.15625	     153.76747	     178.11023	     153.76747	     178.11023
      60.42969	     153.33238	     178.34422	     153.33238	     178.34422
      60.70313	     152.90096	     175.77029	     152.90096	     175.77029
      60.97656	     152.45491	     176.83423	     152.45491	     176.83423
      61.25000	     155.48587	     176.65143	     155.48587	     176.65143
      61.52344	     157.44557	     180.33684	     157.44557	     180.33684
      61.79688	     152.72911	     175.91653	     152.72911	     175.91653
      62.07031	     152.66330	     176.47227	     152.66330	     176.47227
      62.34375	     152.15144	     174.85258	     152.15144	     174.85258
      62.61719	     152.55362	     175.57286	     152.55362	     175.57286
      62.89063	     153.01430	     178.58919	     153.01430	     178.58919
      63.16406	     155.35789	     179.70067	     155.35789	     179.70067
      63.43750	     154.14040	     176.61487	     154.14040	     176.61487
      63.71094	     154.17696	     179.11934	     154.17696	     179.11934
      63.98438	     153.76016	     176.11031	     153.76016	     176.11031
      64.25781	     153.33604	     175.40102	     153.33604	     175.40102
      64.53125	     152.46953	     176.03354	     152.46953	     176.03354
      64.80469	     152.19531	     174.19083	     152.19531	     174.19083
      65.07813	     155.27380	     178.71716	     155.27380	     178.71716
      65.35156	     151.21912	     173.80327	     151.21912	     173.80327
      65.62500	     151.30687	     175.55823	     151.30687	     175.55823
      65.89844	     154.06728	     176.54539	     154.06728	     176.54539
      66.17188	     155.99408	     176.13225	     155.99408	     176.13225
      66.44531	     154.78389	     177.06822	     154.78389	     177.06822
      66.71875	     152.65599	     177.47406	     152.65599	     177.47406
      66.99219	     155.45662	     178.26379	     155.45662	     178.26379
      67.26563	     150.21002	     174.11404	     150.21002	     174.11404
      67.53906	     154.70711	     178.26379	     154.70711	     178.26379
      67.81250	     154.45117	     177.85796	     154.45117	     177.85796
      68.08594	     152.82053	     174.75388	     152.82053	     174.75388
      68.35938	     152.18069	     174.64053	     152.18069	     174.64053
      68.63281	     150.40746	     174.69171	     150.40746	     174.69171
      68.90625	     155.99773	     180.04434	     155.99773	     180.04434
      69.17969	     152.59018	     177.01338	     152.59018	     177.01338
      69.45313	     153.61024	     177.73366	     153.61024	     177.73366

Monitor Diode	1632177.66
"StandardDeviation"
  3.12500E-006	  1.62892E-002
  6.25000E-006	  1.62893E-002
  9.37500E-006	  1.62891E-002
  1.25000E-005	  1.62893E-002
  1.56250E-005	  1.62893E-002
  1.87500E-005	  1.62891E-002
  2.18750E-005	  1.62891E-002
  2.50000E-005	  1.62892E-002
  2.81250E-005	  1.61825E-002
  3.12500E-005	  1.62893E-002
  3.43750E-005	  1.60918E-002
  3.75000E-005	  1.62553E-002
  4.06250E-005	  1.62890E-002
  4.37500E-005	  1.61234E-002
  4.68750E-005	  1.60979E-002
  5.00000E-005	  1.14871E-002
  5.62500E-005	  1.13857E-002
  6.25000E-005	  1.15240E-002
  6.87500E-005	  1.13463E-002
  7.50000E-005	  1.14143E-002
  8.12500E-005	  1.13819E-002
  8.75000E-005	  1.13790E-002
  9.37500E-005	  1.13913E-002
  1.00000E-004	  8.04765E-003
  1.12500E-004	  8.10617E-003
  1.25000E-004	  8.08562E-003
  1.37500E-004	  8.08405E-003
  1.50000E-004	  8.10138E-003
  1.62500E-004	  8.07804E-003
  1.75000E-004	  8.08616E-003
  1.87500E-004	  8.09636E-003
  2.00000E-004	  5.73864E-003
  2.25000E-004	  5.72604E-003
  2.50000E-004	  5.71519E-003
  2.75000E-004	  5.71203E-003
  3.00000E-004	  5.72036E-003
  3.25000E-004	  5.70680E-003
  3.50000E-004	  5.71877E-003
  3.75000E-004	  5.72631E-003
  4.00000E-004	  4.06366E-003
  4.50000E-004	  4.05492E-003
  5.00000E-004	  4.05787E-003
  5.50000E-004	  4.05315E-003
  6.00000E-004	  4.06022E-003
  6.50000E-004	  4.05001E-003
  7.00000E-004	  4.05080E-003
  7.50000E-004	  4.05124E-003
  8.00000E-004	  2.88399E-003
  9.00000E-004	  2.88530E-003
  1.00000E-003	  2.88059E-003
  1.10000E-003	  2.87994E-003
  1.20000E-003	  2.88037E-003
  1.30000E-003	  2.87808E-003
  1.40000E-003	  2.87454E-003
  1.50000E-003	  2.86917E-003
  1.60000E-003	  2.06254E-003
  1.80000E-003	  2.05938E-003
  2.00000E-003	  2.05845E-003
  2.20000E-003	  2.05680E-003
  2.40000E-003	  2.05375E-003
  2.60000E-003	  2.05171E-003
  2.80000E-003	  2.04994E-003
  3.00000E-003	  2.04812E-003
  3.20000E-003	  1.48896E-003
  3.60000E-003	  1.48618E-003
  4.00000E-003	  1.48194E-003
  4.40000E-003	  1.47889E-003
  4.80000E-003	  1.47602E-003
  5.20000E-003	  1.47242E-003
  5.60000E-003	  1.47018E-003
  6.00000E-003	  1.46713E-003
  6.40000E-003	  1.08927E-003
  7.20000E-003	  1.08461E-003
  8.00000E-003	  1.07969E-003
  8.80000E-003	  1.07587E-003
  9.60000E-003	  1.07144E-003
  1.04000E-002	  1.06751E-003
  1.12000E-002	  1.06337E-003
  1.20000E-002	  1.05997E-003
  1.28000E-002	  8.10399E-004
  1.44000E-002	  8.03725E-004
  1.60000E-002	  7.97216E-004
  1.76000E-002	  7.91705E-004
  1.92000E-002	  7.86447E-004
  2.08000E-002	  7.81318E-004
  2.24000E-002	  7.76645E-004
  2.40000E-002	  7.72121E-004
  2.56000E-002	  6.10965E-004
  2.88000E-002	  6.02871E-004
  3.20000E-002	  5.95823E-004
  3.52000E-002	  5.89654E-004
  3.84000E-002	  5.84196E-004
  4.16000E-002	  5.79141E-004
  4.48000E-002	  5.74958E-004
  4.80000E-002	  5.70869E-004
  5.12000E-002	  4.67889E-004
  5.76000E-002	  4.61317E-004
  6.40000E-002	  4.56351E-004
  7.04000E-002	  4.52546E-004
  7.68000E-002	  4.49526E-004
  8.32000E-002	  4.46763E-004
  8.96000E-002	  4.44878E-004
  9.60000E-002	  4.42938E-004
  1.02400E-001	  3.75852E-004
  1.15200E-001	  3.73594E-004
  1.28000E-001	  3.72129E-004
  1.40800E-001	  3.71225E-004
  1.53600E-001	  3.68703E-004
  1.66400E-001	  3.68703E-004
  1.79200E-001	  3.68703E-004
  1.92000E-001	  3.68703E-004
  2.04800E-001	  3.18035E-004
  2.30400E-001	  3.18035E-004
  2.56000E-001	  3.18035E-004
  2.81600E-001	  3.18035E-004
  3.07200E-001	  3.18035E-004
  3.32800E-001	  3.18035E-004
  3.58400E-001	  3.18035E-004
  3.84000E-001	  3.18035E-004
  4.09600E-001	  2.71361E-004
  4.60800E-001	  2.71361E-004
  5.12000E-001	  2.71361E-004
  5.63200E-001	  2.71361E-004
  6.14400E-001	  2.71361E-004
  6.65600E-001	  2.71361E-004
  7.16800E-001	  2.71361E-004
  7.68000E-001	  2.71361E-004
  8.19200E-001	  2.27229E-004
  9.21600E-001	  2.27229E-004
  1.02400E+000	  2.27229E-004
  1.12640E+000	  2.27229E-004
  1.22880E+000	  2.27229E-004
  1.33120E+000	  2.27229E-004
  1.43360E+000	  2.27229E-004
  1.53600E+000	  2.27229E-004
  1.63840E+000	  1.78066E-004
  1.84320E+000	  1.78066E-004
  2.04800E+000	  1.78066E-004
  2.25280E+000	  1.78066E-004
  2.45760E+000	  1.78066E-004
  2.66240E+000	  1.78066E-004
  2.86720E+000	  1.78066E-004
  3.07200E+000	  1.78066E-004
  3.27680E+000	  1.33222E-004
  3.68640E+000	  1.33222E-004
  4.09600E+000	  1.33222E-004
  4.50560E+000	  1.33222E-004
  4.91520E+000	  1.33222E-004
  5.32480E+000	  1.33222E-004
  5.73440E+000	  1.33222E-004
  6.14400E+000	  1.33222E-004
  6.55360E+000	  9.68407E-005
  7.37280E+000	  9.68407E-005
  8.19200E+000	  9.68407E-005
  9.01120E+000	  9.68407E-005
  9.83040E+000	  9.68407E-005
  1.06496E+001	  9.68407E-005
  1.14688E+001	  9.68407E-005
  1.22880E+001	  9.68407E-005
  1.31072E+001	  6.94099E-005
  1.47456E+001	  6.94099E-005
  1.63840E+001	  6.94099E-005
  1.80224E+001	  6.94099E-005
  1.96608E+001	  6.94099E-005
  2.12992E+001	  6.94099E-005
  2.29376E+001	  6.94099E-005
  2.45760E+001	  6.94099E-005
  2.62144E+001	  4.94100E-005
  2.94912E+001	  4.94100E-005
  3.27680E+001	  4.94100E-005
  3.60448E+001	  4.94100E-005
  3.93216E+001	  4.94100E-005
  4.25984E+001	  4.94100E-005
  4.58752E+001	  4.94100E-005
  4.91520E+001	  4.94100E-005
  5.24288E+001	  3.50547E-005
  5.89824E+001	  3.50547E-005
  6.55360E+001	  3.50547E-005
  7.20896E+001	  3.50547E-005
  7.86432E+001	  3.50547E-005
  8.51968E+001	  3.50547E-005
  9.17504E+001	  3.50547E-005
  9.83040E+001	  3.50547E-005
  1.04858E+002	  2.48284E-005
  1.17965E+002	  2.48284E-005
  1.31072E+002	  2.48284E-005
  1.44179E+002	  2.48284E-005
  1.57286E+002	  2.48284E-005
  1.70394E+002	  2.48284E-005
  1.83501E+002	  2.48284E-005
  1.96608E+002	  2.48284E-005
  2.09715E+002	  1.75705E-005
  2.35930E+002	  1.75705E-005
  2.62144E+002	  1.75705E-005
  2.88358E+002	  1.75705E-005
  3.14573E+002	  1.75705E-005
  3.40787E+002	  1.75705E-005
  3.67002E+002	  1.75705E-005
  3.93216E+002	  1.75705E-005
  4.19430E+002	  1.24289E-005
  4.71859E+002	  1.24289E-005
  5.24288E+002	  1.24289E-005
  5.76717E+002	  1.24289E-005
  6.29146E+002	  1.24289E-005
  6.81574E+002	  1.24289E-005
  7.34003E+002	  1.24289E-005
  7.86432E+002	  1.24289E-005
  8.38861E+002	  8.78961E-006
  9.43718E+002	  8.78961E-006
  1.04858E+003	  8.78961E-006
  1.15343E+003	  8.78961E-006
  1.25829E+003	  8.78961E-006
  1.36315E+003	  8.78961E-006
  1.46801E+003	  8.78961E-006
  1.57286E+003	  8.78961E-006
  1.67772E+003	  6.21478E-006
  1.88744E+003	  6.21478E-006
  2.09715E+003	  6.21478E-006
  2.30687E+003	  6.21478E-006
  2.51658E+003	  6.21478E-006
  2.72630E+003	  6.21478E-006
  2.93601E+003	  6.21478E-006
  3.14573E+003	  6.21478E-006
  3.35544E+003	  4.39325E-006
  3.77487E+003	  4.39325E-006
  4.19430E+003	  4.39325E-006
  4.61373E+003	  4.39325E-006
  5.03317E+003	  4.39325E-006
  5.45260E+003	  4.39325E-006
  5.87203E+003	  4.39325E-006
  6.29146E+003	  4.39325E-006
  6.71089E+003	  3.10446E-006
  7.54975E+003	  3.10446E-006
  8.38861E+003	  3.10446E-006
  9.22747E+003	  3.10446E-006
  1.00663E+004	  3.10446E-006
  1.09052E+004	  3.10446E-006
  1.17441E+004	  3.10446E-006
