ALV-7004 or ALV-7004/FAST Data
Date :	"3/27/2010"
Time :	"11:18:14 AM"
Samplename : 	"BSA 1 g/l in YCl3 8.3mM"
SampMemo(0) : 	""
SampMemo(1) : 	""
SampMemo(2) : 	""
SampMemo(3) : 	""
SampMemo(4) : 	""
SampMemo(5) : 	""
SampMemo(6) : 	""
SampMemo(7) : 	""
SampMemo(8) : 	""
SampMemo(9) : 	""
Temperature [K] :	     295.70084
Viscosity [cp]  :	       0.94216
Refractive Index:	       1.33200
Wavelength [nm] :	     632.80000
Angle [°]       :	     140.00000
Duration [s]    :	        70
Runs            :	         1
Mode            :	"C-CH0/1+1/0"
MeanCR0 [kHz]   :	      86.65268
MeanCR1 [kHz]   :	     103.61265
MeanCR2 [kHz]   :	       0.00000
MeanCR3 [kHz]   :	       0.00000

"Correlation"
  3.12500E-006	  3.11894E-001	  3.17763E-001	 -1.00000E+000	 -1.00000E+000
  6.25000E-006	  3.06025E-001	  2.93265E-001	 -1.00000E+000	 -1.00000E+000
  9.37500E-006	  3.34605E-001	  3.74924E-001	 -1.00000E+000	 -1.00000E+000
  1.25000E-005	  3.17253E-001	  3.66248E-001	 -1.00000E+000	 -1.00000E+000
  1.56250E-005	  3.06535E-001	  2.79486E-001	 -1.00000E+000	 -1.00000E+000
  1.87500E-005	  3.42260E-001	  3.35115E-001	 -1.00000E+000	 -1.00000E+000
  2.18750E-005	  3.21846E-001	  3.52468E-001	 -1.00000E+000	 -1.00000E+000
  2.50000E-005	  2.83569E-001	  3.02962E-001	 -1.00000E+000	 -1.00000E+000
  2.81250E-005	  2.98624E-001	  3.44302E-001	 -1.00000E+000	 -1.00000E+000
  3.12500E-005	  3.14190E-001	  3.11639E-001	 -1.00000E+000	 -1.00000E+000
  3.43750E-005	  3.15722E-001	  3.03983E-001	 -1.00000E+000	 -1.00000E+000
  3.75000E-005	  3.50682E-001	  3.48895E-001	 -1.00000E+000	 -1.00000E+000
  4.06250E-005	  3.30522E-001	  3.17253E-001	 -1.00000E+000	  5.50657E-001
  4.37500E-005	  3.32308E-001	  3.16232E-001	 -1.00000E+000	  7.61082E-001
  4.68750E-005	  3.30012E-001	  3.42771E-001	 -1.00000E+000	 -2.49214E-001
  5.00000E-005	  3.24270E-001	  3.23122E-001	 -1.00000E+000	  1.06776E+000
  5.62500E-005	  3.22994E-001	  3.21080E-001	 -1.00000E+000	  5.42761E-001
  6.25000E-005	  3.07938E-001	  2.95052E-001	 -1.00000E+000	  5.86724E-001
  6.87500E-005	  3.29501E-001	  3.35115E-001	 -9.57892E-001	  5.80961E-001
  7.50000E-005	  2.79230E-001	  2.98114E-001	  8.79893E-001	  3.96573E-001
  8.12500E-005	  3.09852E-001	  3.07556E-001	  4.17319E-001	  4.84072E-001
  8.75000E-005	  3.00793E-001	  2.91734E-001	  4.63698E-001	  4.02975E-001
  9.37500E-005	  3.12787E-001	  3.20825E-001	  3.82839E-001	  3.98494E-001
  1.00000E-004	  2.98178E-001	  2.96200E-001	  3.63769E-001	  3.73524E-001
  1.12500E-004	  3.20123E-001	  3.16615E-001	  3.93519E-001	  3.62533E-001
  1.25000E-004	  3.16997E-001	  3.22356E-001	  3.30052E-001	  3.85155E-001
  1.37500E-004	  3.15658E-001	  2.94286E-001	  3.38901E-001	  3.82594E-001
  1.50000E-004	  3.13616E-001	  3.03090E-001	  3.19525E-001	  3.42686E-001
  1.62500E-004	  2.98497E-001	  2.90458E-001	  3.16474E-001	  3.43433E-001
  1.75000E-004	  3.19358E-001	  3.07811E-001	  3.18152E-001	  3.67229E-001
  1.87500E-004	  3.18018E-001	  3.22356E-001	  3.23187E-001	  3.43753E-001
  2.00000E-004	  3.13840E-001	  3.01240E-001	  3.15177E-001	  3.36337E-001
  2.25000E-004	  3.01814E-001	  2.95116E-001	  3.00989E-001	  3.26360E-001
  2.50000E-004	  3.14350E-001	  3.07300E-001	  3.07091E-001	  3.28334E-001
  2.75000E-004	  3.04398E-001	  3.00921E-001	  3.05108E-001	  3.41246E-001
  3.00000E-004	  3.09214E-001	  3.00985E-001	  3.01523E-001	  3.30095E-001
  3.25000E-004	  3.07556E-001	  3.06854E-001	  3.03125E-001	  3.24173E-001
  3.50000E-004	  3.01463E-001	  2.98114E-001	  3.13652E-001	  3.10514E-001
  3.75000E-004	  3.10490E-001	  2.97221E-001	  3.04193E-001	  3.11688E-001
  4.00000E-004	  3.05339E-001	  3.02452E-001	  3.06977E-001	  3.17317E-001
  4.50000E-004	  3.08529E-001	  3.04589E-001	  3.08884E-001	  3.17717E-001
  5.00000E-004	  2.97604E-001	  2.97189E-001	  3.04154E-001	  3.12782E-001
  5.50000E-004	  3.01607E-001	  2.97859E-001	  3.06939E-001	  3.20518E-001
  6.00000E-004	  3.05131E-001	  3.01431E-001	  2.96946E-001	  3.24893E-001
  6.50000E-004	  2.95642E-001	  2.98592E-001	  3.00264E-001	  3.14862E-001
  7.00000E-004	  2.99007E-001	  2.96296E-001	  2.93551E-001	  3.18090E-001
  7.50000E-004	  2.98752E-001	  2.93074E-001	  3.14071E-001	  3.06406E-001
  8.00000E-004	  2.98513E-001	  2.95355E-001	  2.97976E-001	  3.04138E-001
  9.00000E-004	  2.93002E-001	  2.94701E-001	  2.91072E-001	  3.10741E-001
  1.00000E-003	  2.91288E-001	  2.92117E-001	  2.86591E-001	  3.06032E-001
  1.10000E-003	  2.87348E-001	  2.88991E-001	  2.99845E-001	  2.95749E-001
  1.20000E-003	  2.89047E-001	  2.88576E-001	  2.82853E-001	  2.95509E-001
  1.30000E-003	  2.84358E-001	  2.85785E-001	  2.80507E-001	  2.87105E-001
  1.40000E-003	  2.82915E-001	  2.84270E-001	  2.77189E-001	  2.96295E-001
  1.50000E-003	  2.73449E-001	  2.74430E-001	  2.78944E-001	  2.94135E-001
  1.60000E-003	  2.78892E-001	  2.82349E-001	  2.74948E-001	  2.89526E-001
  1.80000E-003	  2.76089E-001	  2.78704E-001	  2.76531E-001	  2.84725E-001
  2.00000E-003	  2.70510E-001	  2.69358E-001	  2.64488E-001	  2.82917E-001
  2.20000E-003	  2.71798E-001	  2.73553E-001	  2.62505E-001	  2.74161E-001
  2.40000E-003	  2.63724E-001	  2.63728E-001	  2.59072E-001	  2.71019E-001
  2.60000E-003	  2.60486E-001	  2.60554E-001	  2.59654E-001	  2.69492E-001
  2.80000E-003	  2.55383E-001	  2.53768E-001	  2.58986E-001	  2.67732E-001
  3.00000E-003	  2.49430E-001	  2.51336E-001	  2.50652E-001	  2.56294E-001
  3.20000E-003	  2.47674E-001	  2.47959E-001	  2.51563E-001	  2.53493E-001
  3.60000E-003	  2.43868E-001	  2.44266E-001	  2.44936E-001	  2.50052E-001
  4.00000E-003	  2.35393E-001	  2.32488E-001	  2.34281E-001	  2.42645E-001
  4.40000E-003	  2.24994E-001	  2.28509E-001	  2.30671E-001	  2.32808E-001
  4.80000E-003	  2.20582E-001	  2.19003E-001	  2.24707E-001	  2.26459E-001
  5.20000E-003	  2.15778E-001	  2.13884E-001	  2.16879E-001	  2.22068E-001
  5.60000E-003	  2.08405E-001	  2.06364E-001	  2.09503E-001	  2.12801E-001
  6.00000E-003	  2.04775E-001	  2.05738E-001	  2.06523E-001	  2.10273E-001
  6.40000E-003	  1.97713E-001	  1.97369E-001	  1.99694E-001	  2.02355E-001
  7.20000E-003	  1.86953E-001	  1.87128E-001	  1.90338E-001	  1.91520E-001
  8.00000E-003	  1.79150E-001	  1.76328E-001	  1.79431E-001	  1.79230E-001
  8.80000E-003	  1.67944E-001	  1.68503E-001	  1.66075E-001	  1.70637E-001
  9.60000E-003	  1.58435E-001	  1.55323E-001	  1.61825E-001	  1.62407E-001
  1.04000E-002	  1.50195E-001	  1.50032E-001	  1.49441E-001	  1.53190E-001
  1.12000E-002	  1.41592E-001	  1.42534E-001	  1.43410E-001	  1.43128E-001
  1.20000E-002	  1.34738E-001	  1.34191E-001	  1.32714E-001	  1.37195E-001
  1.28000E-002	  1.26256E-001	  1.26164E-001	  1.27536E-001	  1.29764E-001
  1.44000E-002	  1.12372E-001	  1.11436E-001	  1.14694E-001	  1.18703E-001
  1.60000E-002	  1.01171E-001	  1.00329E-001	  1.03144E-001	  1.02856E-001
  1.76000E-002	  9.23558E-002	  9.19565E-002	  9.10161E-002	  9.34978E-002
  1.92000E-002	  8.28214E-002	  8.35355E-002	  8.25798E-002	  8.20870E-002
  2.08000E-002	  7.18764E-002	  7.18747E-002	  7.31814E-002	  7.45284E-002
  2.24000E-002	  6.50722E-002	  6.52010E-002	  6.63577E-002	  6.73732E-002
  2.40000E-002	  5.86049E-002	  5.83699E-002	  5.87307E-002	  6.09983E-002
  2.56000E-002	  5.29746E-002	  5.28818E-002	  5.29312E-002	  5.29698E-002
  2.88000E-002	  4.18735E-002	  4.21027E-002	  4.30346E-002	  4.39494E-002
  3.20000E-002	  3.41157E-002	  3.44510E-002	  3.37161E-002	  3.37605E-002
  3.52000E-002	  2.70787E-002	  2.70195E-002	  2.63646E-002	  2.80578E-002
  3.84000E-002	  2.18017E-002	  2.13199E-002	  2.24088E-002	  2.22651E-002
  4.16000E-002	  1.80475E-002	  1.83860E-002	  2.02206E-002	  1.90076E-002
  4.48000E-002	  1.47046E-002	  1.41776E-002	  1.53787E-002	  1.56976E-002
  4.80000E-002	  1.16125E-002	  1.11722E-002	  1.16844E-002	  1.07279E-002
  5.12000E-002	  9.85422E-003	  9.18966E-003	  8.90327E-003	  9.53752E-003
  5.76000E-002	  5.93839E-003	  5.88100E-003	  6.06742E-003	  6.35488E-003
  6.40000E-002	  3.45480E-003	  3.42079E-003	  3.83127E-003	  4.47647E-003
  7.04000E-002	  2.92588E-003	  2.65699E-003	  1.73083E-003	  2.77820E-003
  7.68000E-002	  2.24440E-003	  2.36908E-003	  2.16426E-003	  1.54316E-003
  8.32000E-002	  1.23394E-003	  6.38119E-004	  1.14071E-003	  8.29003E-004
  8.96000E-002	  1.03570E-003	  1.19334E-003	  5.58758E-004	  7.04373E-004
  9.60000E-002	  1.56374E-004	 -5.56223E-004	 -1.09472E-004	  1.36017E-003
  1.02400E-001	 -2.08291E-005	 -4.62334E-004	 -2.56570E-004	  5.28803E-004
  1.15200E-001	  2.40611E-004	  5.16863E-005	 -3.18086E-004	 -4.61742E-004
  1.28000E-001	 -2.03253E-005	 -5.44449E-004	  2.50636E-004	  3.64504E-004
  1.40800E-001	  1.52157E-004	 -2.67420E-004	  5.75000E-004	 -2.24502E-004
  1.53600E-001	  5.18277E-004	  6.50393E-004	  1.08231E-003	  4.46480E-004
  1.66400E-001	  6.40800E-004	  9.03372E-004	  9.91340E-004	  2.44007E-004
  1.79200E-001	  1.07069E-003	  1.04462E-003	  3.13821E-004	  9.05883E-004
  1.92000E-001	  2.64383E-004	  2.44765E-004	 -3.84756E-004	 -2.61465E-004
  2.04800E-001	 -4.01577E-005	 -3.49301E-004	  1.15714E-004	 -7.72510E-005
  2.30400E-001	 -2.17341E-004	 -3.00893E-004	 -7.39706E-004	 -1.31699E-004
  2.56000E-001	 -4.55169E-004	 -8.67127E-004	 -5.09932E-004	 -5.98666E-004
  2.81600E-001	 -1.02185E-004	  2.10534E-004	 -4.76815E-004	 -9.41210E-005
  3.07200E-001	  3.95137E-004	  6.19873E-005	  3.09193E-004	 -1.36549E-004
  3.32800E-001	  2.23331E-004	 -2.70347E-004	  7.65629E-005	  1.35079E-005
  3.58400E-001	 -3.51785E-004	 -8.10019E-004	  2.12298E-005	  1.75149E-004
  3.84000E-001	  2.06865E-004	 -7.90861E-005	  7.28141E-004	 -3.69119E-005
  4.09600E-001	  2.44633E-005	  1.16680E-004	 -3.16533E-005	  9.44317E-005
  4.60800E-001	 -8.59672E-005	 -3.94775E-005	  4.91152E-004	 -1.31993E-004
  5.12000E-001	 -3.09856E-004	 -2.11590E-004	  2.65940E-004	 -2.03278E-004
  5.63200E-001	 -2.43758E-004	 -2.36731E-004	 -3.62675E-004	 -2.21498E-004
  6.14400E-001	  9.95031E-005	 -6.84650E-005	  1.66075E-004	  6.58090E-005
  6.65600E-001	 -1.73588E-004	 -4.71977E-004	 -1.05045E-004	 -4.57776E-004
  7.16800E-001	 -2.93061E-004	 -2.16365E-004	  1.45912E-004	 -3.95390E-004
  7.68000E-001	  1.79207E-004	  5.29228E-004	  5.59772E-004	  1.14041E-004
  8.19200E-001	  1.61870E-005	  1.62740E-004	  3.68508E-004	  2.32314E-004
  9.21600E-001	  1.25335E-004	  3.46692E-004	 -6.82902E-005	  2.34429E-004
  1.02400E+000	  6.02121E-005	  1.64249E-005	 -1.75267E-004	  1.84904E-004
  1.12640E+000	 -1.15154E-004	 -2.59997E-004	 -2.63072E-004	 -6.01967E-005
  1.22880E+000	 -2.68240E-004	 -2.34382E-004	 -5.09726E-004	  6.41894E-005
  1.33120E+000	 -2.83234E-004	 -2.19881E-004	 -1.65170E-004	 -1.12396E-004
  1.43360E+000	  5.93711E-005	  1.10148E-004	 -1.81934E-004	  4.84431E-004
  1.53600E+000	 -2.35736E-004	 -2.67749E-004	 -7.52556E-005	 -2.66936E-004
  1.63840E+000	  8.32294E-005	  5.69573E-006	  2.56423E-005	  9.25516E-005
  1.84320E+000	 -2.23802E-004	 -4.33976E-004	 -4.01651E-004	 -2.80740E-004
  2.04800E+000	 -1.15763E-004	  7.94524E-005	 -1.34946E-004	 -1.39764E-004
  2.25280E+000	  1.19056E-004	  1.87251E-004	  1.22223E-004	  7.12886E-005
  2.45760E+000	 -2.27510E-004	 -3.74528E-004	 -3.45434E-004	 -1.93881E-004
  2.66240E+000	 -3.79653E-005	  1.19343E-004	  1.67540E-004	  7.13032E-005
  2.86720E+000	  1.27740E-005	 -3.27644E-005	  7.50922E-006	 -1.19733E-004
  3.07200E+000	 -2.49229E-005	  1.21507E-005	  6.08278E-005	  1.43322E-005
  3.27680E+000	 -1.07961E-005	  5.95809E-005	  8.28726E-006	 -1.89143E-004
  3.68640E+000	 -3.95157E-005	 -6.19377E-005	 -1.30145E-004	 -5.83000E-005
  4.09600E+000	  2.62744E-005	  3.39208E-005	 -1.19966E-005	 -6.66552E-006
  4.50560E+000	  4.86348E-005	  7.81220E-005	  1.64787E-004	  1.60110E-004
  4.91520E+000	 -1.75515E-005	 -1.18858E-004	 -2.23491E-004	 -8.55708E-007
  5.32480E+000	 -6.37706E-006	  3.83051E-005	 -1.41181E-004	 -1.62781E-004
  5.73440E+000	  4.40098E-005	  6.55419E-005	  1.17467E-004	 -8.94772E-006
  6.14400E+000	  8.10301E-005	  1.39762E-004	  1.30377E-004	  4.55986E-005
  6.55360E+000	  1.29559E-004	  1.37025E-004	  1.60287E-004	  6.41834E-005
  7.37280E+000	 -6.85737E-005	 -4.78242E-005	 -2.31430E-005	 -9.48531E-005
  8.19200E+000	 -7.61948E-005	 -1.58111E-004	 -7.93065E-005	  9.18656E-005
  9.01120E+000	  5.35658E-005	  4.82561E-005	  7.35546E-005	 -7.60163E-006
  9.83040E+000	  4.32091E-005	  3.12676E-005	  1.39713E-004	 -5.54392E-005
  1.06496E+001	 -3.35538E-005	 -6.97420E-005	  6.41830E-005	 -1.33370E-005
  1.14688E+001	 -3.59591E-005	 -3.59023E-005	 -2.55503E-005	  7.74223E-005
  1.22880E+001	  1.38810E-004	  1.60406E-004	  3.75539E-005	  1.91521E-004
  1.31072E+001	  3.47103E-005	  7.11013E-005	 -3.71253E-005	  1.10911E-005
  1.47456E+001	  2.34410E-005	  1.23244E-005	  3.82428E-005	  4.12433E-005
  1.63840E+001	 -1.71354E-006	 -2.56422E-005	 -7.22567E-005	 -2.75967E-006
  1.80224E+001	 -1.55993E-005	  4.85732E-005	  3.52968E-005	 -7.06626E-005
  1.96608E+001	 -2.43639E-005	  6.83122E-006	 -8.38444E-005	  2.97271E-005
  2.12992E+001	 -6.71891E-005	 -8.52903E-005	 -1.86467E-006	  1.49197E-007
  2.29376E+001	 -4.03504E-005	 -7.36131E-005	 -7.95195E-005	 -5.74619E-005
  2.45760E+001	 -1.27953E-005	 -1.25773E-005	 -3.29861E-005	 -2.73415E-005
  2.62144E+001	  5.32866E-005	  1.28612E-005	  9.52511E-005	 -4.96365E-006
  2.94912E+001	 -1.21709E-005	  2.38621E-005	  5.44478E-005	 -1.49194E-006
  3.27680E+001	 -4.42774E-005	 -2.94123E-005	 -1.97215E-005	  2.10500E-005
  3.60448E+001	  7.40643E-006	 -1.71914E-005	  6.86280E-006	 -9.19882E-006
  3.93216E+001	 -1.08346E-005	 -3.65991E-006	  3.18558E-005	 -3.22595E-005
  4.25984E+001	  1.96950E-005	  4.33574E-005	  6.15899E-005	  7.33027E-005
  4.58752E+001	  1.93292E-005	 -1.07374E-005	  4.08708E-005	 -6.31469E-005
  4.91520E+001	  2.84224E-006	  1.33285E-005	  3.95911E-005	 -4.97192E-006
  5.24288E+001	  1.82235E-005	  2.16225E-005	  4.73439E-005	  9.50324E-006
  5.89824E+001	  8.32509E-006	  1.53638E-005	  1.73582E-005	 -1.09001E-005
  6.55360E+001	 -5.70236E-005	 -8.08387E-005	 -6.79117E-005	 -3.08503E-005
  7.20896E+001	 -9.01990E-006	 -8.25844E-006	  2.00626E-005	 -1.20516E-005
  7.86432E+001	  1.52742E-005	  1.99959E-005	  2.42912E-005	  3.75677E-006
  8.51968E+001	 -5.34361E-006	  1.89125E-005	 -9.02286E-006	 -1.18108E-005
  9.17504E+001	  1.26258E-005	  2.45627E-005	  1.54000E-005	  3.30632E-005
  9.83040E+001	 -1.67129E-005	 -1.29898E-005	  7.07242E-006	 -2.76343E-005
  1.04858E+002	  1.28480E-005	  1.48957E-005	  1.46561E-005	 -1.28045E-005
  1.17965E+002	  1.76737E-005	  1.96775E-005	  2.96956E-006	  2.43473E-005
  1.31072E+002	  2.12456E-005	  2.70537E-005	  2.65267E-005	 -3.14370E-007
  1.44179E+002	  8.19136E-006	 -5.80321E-006	 -7.82007E-006	  1.17815E-005
  1.57286E+002	  5.91164E-006	  2.20627E-006	  1.87277E-005	  8.96571E-006
  1.70394E+002	  1.08447E-006	  2.83206E-005	  1.97033E-005	 -2.92707E-005
  1.83501E+002	 -7.48009E-006	 -2.01324E-005	  5.33987E-006	  1.50285E-005
  1.96608E+002	  6.01727E-006	 -3.09163E-006	  4.95801E-005	 -2.56524E-005
  2.09715E+002	  1.76942E-005	  7.74812E-006	  3.02136E-005	  1.36541E-005
  2.35930E+002	 -1.70700E-005	 -9.43520E-006	  1.36512E-005	 -6.23916E-006
  2.62144E+002	 -1.87183E-005	 -1.01105E-005	 -2.60114E-005	 -2.86380E-006
  2.88358E+002	 -9.19064E-006	 -1.38674E-005	  9.43777E-006	 -1.06568E-005
  3.14573E+002	  1.75012E-006	  5.17940E-006	  1.77611E-005	 -1.68455E-005
  3.40787E+002	 -1.20780E-005	  4.13821E-006	 -2.53433E-005	 -3.38201E-006
  3.67002E+002	 -1.08973E-005	 -1.27368E-005	 -1.95145E-005	 -5.17744E-006
  3.93216E+002	  1.50873E-005	  2.12482E-006	  2.98333E-005	  1.88772E-006
  4.19430E+002	 -9.01857E-007	  2.18774E-006	  1.17299E-005	 -1.99872E-006
  4.71859E+002	 -1.73604E-006	 -6.72611E-006	  3.89823E-006	  1.76312E-005
  5.24288E+002	  1.43897E-005	  2.36804E-005	  1.34054E-005	  2.31334E-005
  5.76717E+002	  9.90607E-006	  1.64023E-005	  1.31399E-005	  1.09020E-006
  6.29146E+002	 -3.72641E-006	 -1.22176E-005	 -1.22083E-005	 -5.40531E-006
  6.81574E+002	  3.33829E-006	  1.78752E-006	  6.29106E-006	 -6.18659E-006
  7.34003E+002	  7.54013E-007	  3.94522E-006	  1.93758E-005	  3.13130E-006
  7.86432E+002	 -5.28203E-006	 -3.12920E-006	 -1.50097E-005	 -1.19371E-005
  8.38861E+002	 -8.51428E-006	 -2.35952E-006	 -2.46414E-005	 -6.12980E-006
  9.43718E+002	 -1.06554E-006	 -9.13887E-006	  3.89435E-006	 -3.25334E-006
  1.04858E+003	  1.46491E-006	  5.32857E-006	  3.84591E-006	  1.32333E-006
  1.15343E+003	  2.68125E-006	  1.77236E-006	 -2.93853E-006	 -1.63935E-006
  1.25829E+003	  9.14368E-007	  8.28383E-006	 -2.63656E-006	 -9.26493E-006
  1.36315E+003	 -7.68011E-007	 -6.03231E-006	 -3.47878E-006	  6.41205E-006
  1.46801E+003	 -3.97548E-006	  1.40141E-006	 -1.26057E-006	 -3.49238E-006
  1.57286E+003	 -4.25415E-007	 -8.66146E-006	 -1.65231E-006	 -6.28954E-006
  1.67772E+003	  7.93158E-006	  5.79560E-006	  3.51774E-006	  4.77018E-006
  1.88744E+003	  4.74341E-006	  6.73087E-006	 -2.81700E-006	  1.07569E-005
  2.09715E+003	  4.04156E-006	  5.98953E-006	 -1.06912E-006	 -2.24329E-006
  2.30687E+003	  9.62814E-006	  8.62957E-006	  1.04408E-005	  9.10916E-006
  2.51658E+003	 -2.86238E-006	  3.49756E-007	  3.58894E-007	  2.77856E-006
  2.72630E+003	  3.67538E-006	  5.63007E-006	  5.14774E-006	 -1.93655E-006
  2.93601E+003	  5.09393E-006	  5.89369E-006	  7.02157E-006	  8.53241E-006
  3.14573E+003	 -9.18931E-006	 -2.90241E-006	 -7.09021E-006	 -2.99291E-006
  3.35544E+003	 -2.93987E-006	 -1.13709E-006	 -2.32397E-006	 -2.22290E-006
  3.77487E+003	 -4.99157E-007	  1.13709E-006	  7.73971E-006	 -4.81044E-006
  4.19430E+003	 -1.75271E-006	  1.54075E-007	  1.35112E-006	 -1.48726E-006
  4.61373E+003	  2.51462E-006	  4.29794E-006	 -2.99584E-007	  1.12134E-006
  5.03317E+003	  3.90201E-006	  7.65614E-006	  1.69769E-006	  7.57325E-006
  5.45260E+003	  3.38146E-006	  2.14914E-006	  7.66414E-006	 -3.71361E-006
  5.87203E+003	 -6.37549E-007	  4.11024E-007	  8.27420E-006	 -1.78342E-006
  6.29146E+003	 -3.17449E-006	 -2.76866E-006	  2.89695E-006	 -3.74474E-006
  6.71089E+003	 -1.39172E-006	 -3.63477E-006	  4.26366E-006	 -4.97729E-006
  7.54975E+003	  8.55005E-007	 -1.37776E-006	 -8.30752E-007	 -1.33842E-006
  8.38861E+003	  1.52659E-006	  2.19213E-006	  2.94249E-006	 -3.55854E-006
  9.22747E+003	 -4.98498E-006	 -3.76789E-006	 -2.04308E-006	 -5.23217E-006
  1.00663E+004	 -2.46743E-006	 -4.54980E-006	 -3.31179E-006	  8.57995E-007
  1.09052E+004	 -9.37199E-007	 -2.18435E-006	 -1.86057E-006	 -2.29780E-006
  1.17441E+004	 -1.93190E-006	 -1.66251E-006	  1.03004E-006	 -2.39727E-006

"Count Rate"
       0.27344	      86.95831	     103.15513	      86.95831	     103.15513
       0.54688	      85.73714	     102.52261	      85.73714	     102.52261
       0.82031	      87.60545	     102.98695	      87.60545	     102.98695
       1.09375	      87.13746	     104.32876	      87.13746	     104.32876
       1.36719	      87.77729	     103.31600	      87.77729	     103.31600
       1.64063	      86.28557	     103.89368	      86.28557	     103.89368
       1.91406	      87.63835	     103.72549	      87.63835	     103.72549
       2.18750	      85.72984	     102.49702	      85.72984	     102.49702
       2.46094	      85.91264	     104.84062	      85.91264	     104.84062
       2.73438	      87.15208	     104.48963	      87.15208	     104.48963
       3.00781	      86.85593	     102.74564	      86.85593	     102.74564
       3.28125	      86.34772	     102.56283	      86.34772	     102.56283
       3.55469	      88.95823	     105.44755	      88.95823	     105.44755
       3.82813	      87.36048	     103.76936	      87.36048	     103.76936
       4.10156	      86.51956	     104.62125	      86.51956	     104.62125
       4.37500	      86.25266	     103.07835	      86.25266	     103.07835
       4.64844	      86.12470	     102.94673	      86.12470	     102.94673
       4.92188	      86.64753	     104.09476	      86.64753	     104.09476
       5.19531	      87.90160	     104.55179	      87.90160	     104.55179
       5.46875	      88.10268	     104.88084	      88.10268	     104.88084
       5.74219	      86.09911	     104.26295	      86.09911	     104.26295
       6.01563	      88.66573	     104.34338	      88.66573	     104.34338
       6.28906	      86.68775	     102.79683	      86.68775	     102.79683
       6.56250	      87.94182	     103.46590	      87.94182	     103.46590
       6.83594	      87.81020	     102.96867	      87.81020	     102.96867
       7.10938	      87.38973	     103.63409	      87.38973	     103.63409
       7.38281	      87.28371	     103.60484	      87.28371	     103.60484
       7.65625	      86.75356	     103.73280	      86.75356	     103.73280
       7.92969	      87.29467	     103.56097	      87.29467	     103.56097
       8.20313	      86.70603	     103.67796	      86.70603	     103.67796
       8.47656	      84.57082	     104.03627	      84.57082	     104.03627
       8.75000	      86.72431	     104.77481	      86.72431	     104.77481
       9.02344	      85.71521	     104.71266	      85.71521	     104.71266
       9.29688	      87.39339	     104.01067	      87.39339	     104.01067
       9.57031	      87.22155	     103.60850	      87.22155	     103.60850
       9.84375	      86.83765	     102.27765	      86.83765	     102.27765
      10.11719	      87.05337	     104.05089	      87.05337	     104.05089
      10.39063	      86.64753	     103.50246	      86.64753	     103.50246
      10.66406	      88.66573	     104.35435	      88.66573	     104.35435
      10.93750	      87.29833	     103.68162	      87.29833	     103.68162
      11.21094	      86.72431	     103.21729	      86.72431	     103.21729
      11.48438	      85.95286	     103.50246	      85.95286	     103.50246
      11.75781	      87.33489	     104.14595	      87.33489	     104.14595
      12.03125	      85.95286	     103.13685	      85.95286	     103.13685
      12.30469	      86.70969	     103.84615	      86.70969	     103.84615
      12.57813	      86.54881	     103.45128	      86.54881	     103.45128
      12.85156	      85.72252	     102.63596	      85.72252	     102.63596
      13.12500	      86.13567	     102.63596	      86.13567	     102.63596
      13.39844	      88.11000	     104.82234	      88.11000	     104.82234
      13.67188	      85.96017	     103.09298	      85.96017	     103.09298
      13.94531	      87.18499	     104.08746	      87.18499	     104.08746
      14.21875	      86.66216	     102.01075	      86.66216	     102.01075
      14.49219	      86.50860	     104.05455	      86.50860	     104.05455
      14.76563	      86.27826	     103.86808	      86.27826	     103.86808
      15.03906	      85.18140	     103.62312	      85.18140	     103.62312
      15.31250	      86.19782	     103.63774	      86.19782	     103.63774
      15.58594	      86.87787	     103.40009	      86.87787	     103.40009
      15.85938	      86.98390	     103.15147	      86.98390	     103.15147
      16.13281	      86.90712	     103.31600	      86.90712	     103.31600
      16.40625	      86.81206	     102.67617	      86.81206	     102.67617
      16.67969	      86.39526	     103.18438	      86.39526	     103.18438
      16.95313	      87.13380	     103.26482	      87.13380	     103.26482
      17.22656	      87.36780	     103.44397	      87.36780	     103.44397
      17.50000	      85.66768	     102.27034	      85.66768	     102.27034
      17.77344	      87.09358	     104.84062	      87.09358	     104.84062
      18.04688	      85.94189	     101.83160	      85.94189	     101.83160
      18.32031	      86.33675	     103.42934	      86.33675	     103.42934
      18.59375	      87.25446	     104.06918	      87.25446	     104.06918
      18.86719	      87.53598	     103.53172	      87.53598	     103.53172
      19.14063	      87.29467	     104.02895	      87.29467	     104.02895
      19.41406	      86.01867	     102.69811	      86.01867	     102.69811
      19.68750	      86.45010	     103.06007	      86.45010	     103.06007
      19.96094	      85.96383	     103.94486	      85.96383	     103.94486
      20.23438	      85.29475	     104.09111	      85.29475	     104.09111
      20.50781	      85.91995	     103.82421	      85.91995	     103.82421
      20.78125	      86.22342	     102.74564	      86.22342	     102.74564
      21.05469	      87.87966	     104.67609	      87.87966	     104.67609
      21.32813	      86.43547	     103.28675	      86.43547	     103.28675
      21.60156	      86.59634	     103.03813	      86.59634	     103.03813
      21.87500	      85.91630	     103.72915	      85.91630	     103.72915
      22.14844	      87.66760	     103.23191	      87.66760	     103.23191
      22.42188	      87.12649	     105.15871	      87.12649	     105.15871
      22.69531	      87.21423	     104.09842	      87.21423	     104.09842
      22.96875	      88.06612	     104.45307	      88.06612	     104.45307
      23.24219	      86.88884	     103.30138	      86.88884	     103.30138
      23.51563	      86.20879	     103.84249	      86.20879	     103.84249
      23.78906	      85.13754	     102.24840	      85.13754	     102.24840
      24.06250	      86.83765	     103.74012	      86.83765	     103.74012
      24.33594	      87.15939	     104.73460	      87.15939	     104.73460
      24.60938	      88.03687	     103.46956	      88.03687	     103.46956
      24.88281	      87.64932	     105.53164	      87.64932	     105.53164
      25.15625	      87.58351	     105.33786	      87.58351	     105.33786
      25.42969	      85.73349	     102.53724	      85.73349	     102.53724
      25.70313	      87.21058	     103.88637	      87.21058	     103.88637
      25.97656	      86.96196	     103.96314	      86.96196	     103.96314
      26.25000	      85.43369	     102.79317	      85.43369	     102.79317
      26.52344	      85.60552	     102.60305	      85.60552	     102.60305
      26.79688	      85.90898	     103.18803	      85.90898	     103.18803
      27.07031	      87.37876	     104.55910	      87.37876	     104.55910
      27.34375	      87.45554	     102.96867	      87.45554	     102.96867
      27.61719	      86.81206	     103.62312	      86.81206	     103.62312
      27.89063	      86.01136	     103.91561	      86.01136	     103.91561
      28.16406	      86.06255	     103.26482	      86.06255	     103.26482
      28.43750	      85.55068	     101.07111	      85.55068	     101.07111
      28.71094	      86.18320	     102.25937	      86.18320	     102.25937
      28.98438	      86.18685	     103.04545	      86.18685	     103.04545
      29.25781	      86.96928	     103.46590	      86.96928	     103.46590
      29.53125	      86.26729	     103.93024	      86.26729	     103.93024
      29.80469	      88.32937	     105.49508	      88.32937	     105.49508
      30.07813	      87.71879	     104.80772	      87.71879	     104.80772
      30.35156	      86.88152	     105.01978	      86.88152	     105.01978
      30.62500	      86.48666	     101.20639	      86.48666	     101.20639
      30.89844	      85.22163	     103.25750	      85.22163	     103.25750
      31.17188	      87.63470	     104.20445	      87.63470	     104.20445
      31.44531	      86.55613	     102.37637	      86.55613	     102.37637
      31.71875	      87.76632	     104.50426	      87.76632	     104.50426
      31.99219	      85.88339	     102.66886	      85.88339	     102.66886
      32.26563	      87.21423	     104.13499	      87.21423	     104.13499
      32.53906	      85.23260	     101.87913	      85.23260	     101.87913
      32.81250	      86.96196	     103.36719	      86.96196	     103.36719
      33.08594	      86.97293	     103.52074	      86.97293	     103.52074
      33.35938	      87.04971	     104.01067	      87.04971	     104.01067
      33.63281	      86.01867	     102.74198	      86.01867	     102.74198
      33.90625	      86.62560	     103.83517	      86.62560	     103.83517
      34.17969	      86.67313	     104.65051	      86.67313	     104.65051
      34.45313	      85.74446	     102.56649	      85.74446	     102.56649
      34.72656	      85.68961	     102.66886	      85.68961	     102.66886
      35.00000	      86.46107	     104.13499	      86.46107	     104.13499
      35.27344	      86.06985	     104.05089	      86.06985	     104.05089
      35.54688	      87.21423	     104.19348	      87.21423	     104.19348
      35.82031	      86.48300	     103.99605	      86.48300	     103.99605
      36.09375	      86.83765	     102.94673	      86.83765	     102.94673
      36.36719	      86.57441	     103.25750	      86.57441	     103.25750
      36.64063	      86.74625	     104.55544	      86.74625	     104.55544
      36.91406	      88.11731	     104.88084	      88.11731	     104.88084
      37.18750	      88.67305	     104.82600	      88.67305	     104.82600
      37.46094	      88.11000	     103.52441	      88.11000	     103.52441
      37.73438	      86.80475	     104.79309	      86.80475	     104.79309
      38.00781	      86.68044	     103.69990	      86.68044	     103.69990
      38.28125	      87.13014	     104.73460	      87.13014	     104.73460
      38.55469	      85.85414	     104.17520	      85.85414	     104.17520
      38.82813	      85.67499	     103.31600	      85.67499	     103.31600
      39.10156	      84.56717	     102.48605	      84.56717	     102.48605
      39.37500	      87.19595	     103.22094	      87.19595	     103.22094
      39.64844	      87.05702	     104.40189	      87.05702	     104.40189
      39.92188	      86.67678	     104.18983	      86.67678	     104.18983
      40.19531	      86.20148	     106.06544	      86.20148	     106.06544
      40.46875	      86.65118	     104.20445	      86.65118	     104.20445
      40.74219	      86.04060	     103.22826	      86.04060	     103.22826
      41.01563	      86.88152	     102.74198	      86.88152	     102.74198
      41.28906	      87.93085	     104.92106	      87.93085	     104.92106
      41.56250	      85.92727	     102.94307	      85.92727	     102.94307
      41.83594	      87.63470	     104.88450	      87.63470	     104.88450
      42.10938	      86.68775	     103.29407	      86.68775	     103.29407
      42.38281	      85.81027	     104.50426	      85.81027	     104.50426
      42.65625	      87.70782	     104.08746	      87.70782	     104.08746
      42.92969	      85.87608	     104.39091	      85.87608	     104.39091
      43.20313	      85.94920	     103.19535	      85.94920	     103.19535
      43.47656	      85.75542	     103.00523	      85.75542	     103.00523
      43.75000	      86.46107	     102.75295	      86.46107	     102.75295
      44.02344	      87.07530	     104.12767	      87.07530	     104.12767
      44.29688	      86.25632	     103.07469	      86.25632	     103.07469
      44.57031	      86.12104	     102.91748	      86.12104	     102.91748
      44.84375	      86.83765	     104.35070	      86.83765	     104.35070
      45.11719	      86.51225	     103.12589	      86.51225	     103.12589
      45.39063	      87.03874	     104.60663	      87.03874	     104.60663
      45.66406	      86.70238	     103.92658	      86.70238	     103.92658
      45.93750	      86.14664	     103.01254	      86.14664	     103.01254
      46.21094	      86.49763	     102.90285	      86.49763	     102.90285
      46.48438	      86.02964	     104.21542	      86.02964	     104.21542
      46.75781	      87.63104	     103.74743	      87.63104	     103.74743
      47.03125	      86.26363	     102.21915	      86.26363	     102.21915
      47.30469	      85.90167	     103.04910	      85.90167	     103.04910
      47.57813	      86.76818	     104.82966	      86.76818	     104.82966
      47.85156	      86.38428	     102.74930	      86.38428	     102.74930
      48.12500	      86.61462	     104.36898	      86.61462	     104.36898
      48.39844	      85.53240	     102.74930	      85.53240	     102.74930
      48.67188	      86.47569	     102.13506	      86.47569	     102.13506
      48.94531	      85.44099	     102.63596	      85.44099	     102.63596
      49.21875	      86.82303	     103.10394	      86.82303	     103.10394
      49.49219	      86.29654	     102.39099	      86.29654	     102.39099
      49.76563	      86.60732	     104.67244	      86.60732	     104.67244
      50.03906	      86.00770	     103.65968	      86.00770	     103.65968
      50.31250	      87.50673	     104.58469	      87.50673	     104.58469
      50.58594	      87.33124	     103.74012	      87.33124	     103.74012
      50.85938	      86.86690	     102.62133	      86.86690	     102.62133
      51.13281	      86.49397	     103.05641	      86.49397	     103.05641
      51.40625	      86.26729	     103.89733	      86.26729	     103.89733
      51.67969	      85.35690	     103.00157	      85.35690	     103.00157
      51.95313	      86.68044	     102.99060	      86.68044	     102.99060
      52.22656	      86.65850	     105.07096	      86.65850	     105.07096
      52.50000	      85.68961	     103.98508	      85.68961	     103.98508
      52.77344	      86.28191	     104.04358	      86.28191	     104.04358
      53.04688	      86.84862	     103.52806	      86.84862	     103.52806
      53.32031	      87.07165	     104.02164	      87.07165	     104.02164
      53.59375	      85.74446	     103.97777	      85.74446	     103.97777
      53.86719	      87.13014	     103.56462	      87.13014	     103.56462
      54.14063	      87.14477	     104.78944	      87.14477	     104.78944
      54.41406	      86.74259	     103.48784	      86.74259	     103.48784
      54.68750	      84.70611	     103.93755	      84.70611	     103.93755
      54.96094	      85.85049	     103.16975	      85.85049	     103.16975
      55.23438	      85.85414	     103.35622	      85.85414	     103.35622
      55.50781	      86.46838	     103.84980	      86.46838	     103.84980
      55.78125	      86.32579	     103.74377	      86.32579	     103.74377
      56.05469	      87.49577	     103.85346	      87.49577	     103.85346
      56.32813	      85.60552	     104.66147	      85.60552	     104.66147
      56.60156	      86.33675	     102.60305	      86.33675	     102.60305
      56.87500	      85.74446	     102.60305	      85.74446	     102.60305
      57.14844	      86.84496	     102.01806	      86.84496	     102.01806
      57.42188	      86.04427	     102.95039	      86.04427	     102.95039
      57.69531	      85.14850	     102.40196	      85.14850	     102.40196
      57.96875	      86.17223	     103.20998	      86.17223	     103.20998
      58.24219	      87.40070	     103.65968	      87.40070	     103.65968
      58.51563	      86.19782	     103.48784	      86.19782	     103.48784
      58.78906	      85.74446	     104.20445	      85.74446	     104.20445
      59.06250	      86.04792	     102.73833	      86.04792	     102.73833
      59.33594	      85.58359	     103.72549	      85.58359	     103.72549
      59.60938	      87.04971	     104.04358	      87.04971	     104.04358
      59.88281	      86.17954	     102.26302	      86.17954	     102.26302
      60.15625	      87.40436	     103.91561	      87.40436	     103.91561
      60.42969	      86.28191	     103.80593	      86.28191	     103.80593
      60.70313	      85.70424	     103.75108	      85.70424	     103.75108
      60.97656	      87.08993	     104.67244	      87.08993	     104.67244
      61.25000	      84.72073	     102.57380	      84.72073	     102.57380
      61.52344	      85.70058	     103.04910	      85.70058	     103.04910
      61.79688	      86.60366	     103.53172	      86.60366	     103.53172
      62.07031	      86.70969	     102.95404	      86.70969	     102.95404
      62.34375	      85.71886	     101.89010	      85.71886	     101.89010
      62.61719	      86.31116	     103.52441	      86.31116	     103.52441
      62.89063	      86.61462	     102.71274	      86.61462	     102.71274
      63.16406	      86.90347	     103.69259	      86.90347	     103.69259
      63.43750	      87.16671	     102.61768	      87.16671	     102.61768
      63.71094	      85.26550	     103.00157	      85.26550	     103.00157
      63.98438	      87.22520	     103.87540	      87.22520	     103.87540
      64.25781	      86.25266	     103.46590	      86.25266	     103.46590
      64.53125	      86.19417	     103.65968	      86.19417	     103.65968
      64.80469	      87.14477	     103.22826	      87.14477	     103.22826
      65.07813	      87.17036	     102.83339	      87.17036	     102.83339
      65.35156	      86.55978	     102.36539	      86.55978	     102.36539
      65.62500	      88.76080	     104.09111	      88.76080	     104.09111
      65.89844	      86.49397	     103.35988	      86.49397	     103.35988
      66.17188	      87.40801	     103.08201	      87.40801	     103.08201
      66.44531	      86.89980	     103.26116	      86.89980	     103.26116
      66.71875	      85.95286	     104.32145	      85.95286	     104.32145
      66.99219	      85.87242	     103.41472	      85.87242	     103.41472
      67.26563	      86.50128	     103.25750	      86.50128	     103.25750
      67.53906	      87.87234	     105.12581	      87.87234	     105.12581
      67.81250	      86.20148	     102.97598	      86.20148	     102.97598
      68.08594	      86.79012	     104.35435	      86.79012	     104.35435
      68.35938	      85.61649	     103.78033	      85.61649	     103.78033
      68.63281	      87.45554	     103.56462	      87.45554	     103.56462
      68.90625	      87.31295	     102.20818	      87.31295	     102.20818
      69.17969	      86.59634	     103.36353	      86.59634	     103.36353
      69.45313	      85.13388	     103.46590	      85.13388	     103.46590

Monitor Diode	1633640.23
"StandardDeviation"
  3.12500E-006	  2.89217E-002
  6.25000E-006	  2.89218E-002
  9.37500E-006	  2.89218E-002
  1.25000E-005	  2.89218E-002
  1.56250E-005	  2.89217E-002
  1.87500E-005	  2.89217E-002
  2.18750E-005	  2.89217E-002
  2.50000E-005	  2.89216E-002
  2.81250E-005	  2.87069E-002
  3.12500E-005	  2.88920E-002
  3.43750E-005	  2.89103E-002
  3.75000E-005	  2.89213E-002
  4.06250E-005	  2.87050E-002
  4.37500E-005	  2.87241E-002
  4.68750E-005	  2.86995E-002
  5.00000E-005	  2.02540E-002
  5.62500E-005	  2.02444E-002
  6.25000E-005	  2.01290E-002
  6.87500E-005	  2.02941E-002
  7.50000E-005	  1.99070E-002
  8.12500E-005	  2.01435E-002
  8.75000E-005	  2.00740E-002
  9.37500E-005	  2.01662E-002
  1.00000E-004	  1.41863E-002
  1.12500E-004	  1.43054E-002
  1.25000E-004	  1.42887E-002
  1.37500E-004	  1.42812E-002
  1.50000E-004	  1.42702E-002
  1.62500E-004	  1.41880E-002
  1.75000E-004	  1.43012E-002
  1.87500E-004	  1.42941E-002
  2.00000E-004	  1.01001E-002
  2.25000E-004	  1.00540E-002
  2.50000E-004	  1.01019E-002
  2.75000E-004	  1.00638E-002
  3.00000E-004	  1.00824E-002
  3.25000E-004	  1.00758E-002
  3.50000E-004	  1.00524E-002
  3.75000E-004	  1.00871E-002
  4.00000E-004	  7.13045E-003
  4.50000E-004	  7.13893E-003
  5.00000E-004	  7.10918E-003
  5.50000E-004	  7.11995E-003
  6.00000E-004	  7.12958E-003
  6.50000E-004	  7.10362E-003
  7.00000E-004	  7.11274E-003
  7.50000E-004	  7.11175E-003
  8.00000E-004	  5.04487E-003
  9.00000E-004	  5.03415E-003
  1.00000E-003	  5.03059E-003
  1.10000E-003	  5.02305E-003
  1.20000E-003	  5.02596E-003
  1.30000E-003	  5.01676E-003
  1.40000E-003	  5.01374E-003
  1.50000E-003	  4.99513E-003
  1.60000E-003	  3.56126E-003
  1.80000E-003	  3.55715E-003
  2.00000E-003	  3.54897E-003
  2.20000E-003	  3.55004E-003
  2.40000E-003	  3.53867E-003
  2.60000E-003	  3.53389E-003
  2.80000E-003	  3.52637E-003
  3.00000E-003	  3.51789E-003
  3.20000E-003	  2.51367E-003
  3.60000E-003	  2.50889E-003
  4.00000E-003	  2.49980E-003
  4.40000E-003	  2.48849E-003
  4.80000E-003	  2.48319E-003
  5.20000E-003	  2.47759E-003
  5.60000E-003	  2.46937E-003
  6.00000E-003	  2.46503E-003
  6.40000E-003	  1.77172E-003
  7.20000E-003	  1.76193E-003
  8.00000E-003	  1.75462E-003
  8.80000E-003	  1.74511E-003
  9.60000E-003	  1.73664E-003
  1.04000E-002	  1.72888E-003
  1.12000E-002	  1.72134E-003
  1.20000E-002	  1.71510E-003
  1.28000E-002	  1.24595E-003
  1.44000E-002	  1.23551E-003
  1.60000E-002	  1.22716E-003
  1.76000E-002	  1.22026E-003
  1.92000E-002	  1.21327E-003
  2.08000E-002	  1.20569E-003
  2.24000E-002	  1.20060E-003
  2.40000E-002	  1.19575E-003
  2.56000E-002	  8.82607E-004
  2.88000E-002	  8.75419E-004
  3.20000E-002	  8.70333E-004
  3.52000E-002	  8.66173E-004
  3.84000E-002	  8.62924E-004
  4.16000E-002	  8.60413E-004
  4.48000E-002	  8.58354E-004
  4.80000E-002	  8.56290E-004
  5.12000E-002	  6.41959E-004
  5.76000E-002	  6.41959E-004
  6.40000E-002	  6.41959E-004
  7.04000E-002	  6.41959E-004
  7.68000E-002	  6.41959E-004
  8.32000E-002	  6.41959E-004
  8.96000E-002	  6.41959E-004
  9.60000E-002	  6.41959E-004
  1.02400E-001	  4.98414E-004
  1.15200E-001	  4.98414E-004
  1.28000E-001	  4.98414E-004
  1.40800E-001	  4.98414E-004
  1.53600E-001	  4.98414E-004
  1.66400E-001	  4.98414E-004
  1.79200E-001	  4.98414E-004
  1.92000E-001	  4.98414E-004
  2.04800E-001	  3.91097E-004
  2.30400E-001	  3.91097E-004
  2.56000E-001	  3.91097E-004
  2.81600E-001	  3.91097E-004
  3.07200E-001	  3.91097E-004
  3.32800E-001	  3.91097E-004
  3.58400E-001	  3.91097E-004
  3.84000E-001	  3.91097E-004
  4.09600E-001	  3.03548E-004
  4.60800E-001	  3.03548E-004
  5.12000E-001	  3.03548E-004
  5.63200E-001	  3.03548E-004
  6.14400E-001	  3.03548E-004
  6.65600E-001	  3.03548E-004
  7.16800E-001	  3.03548E-004
  7.68000E-001	  3.03548E-004
  8.19200E-001	  2.28650E-004
  9.21600E-001	  2.28650E-004
  1.02400E+000	  2.28650E-004
  1.12640E+000	  2.28650E-004
  1.22880E+000	  2.28650E-004
  1.33120E+000	  2.28650E-004
  1.43360E+000	  2.28650E-004
  1.53600E+000	  2.28650E-004
  1.63840E+000	  1.66984E-004
  1.84320E+000	  1.66984E-004
  2.04800E+000	  1.66984E-004
  2.25280E+000	  1.66984E-004
  2.45760E+000	  1.66984E-004
  2.66240E+000	  1.66984E-004
  2.86720E+000	  1.66984E-004
  3.07200E+000	  1.66984E-004
  3.27680E+000	  1.19962E-004
  3.68640E+000	  1.19962E-004
  4.09600E+000	  1.19962E-004
  4.50560E+000	  1.19962E-004
  4.91520E+000	  1.19962E-004
  5.32480E+000	  1.19962E-004
  5.73440E+000	  1.19962E-004
  6.14400E+000	  1.19962E-004
  6.55360E+000	  8.54926E-005
  7.37280E+000	  8.54926E-005
  8.19200E+000	  8.54926E-005
  9.01120E+000	  8.54926E-005
  9.83040E+000	  8.54926E-005
  1.06496E+001	  8.54926E-005
  1.14688E+001	  8.54926E-005
  1.22880E+001	  8.54926E-005
  1.31072E+001	  6.06882E-005
  1.47456E+001	  6.06882E-005
  1.63840E+001	  6.06882E-005
  1.80224E+001	  6.06882E-005
  1.96608E+001	  6.06882E-005
  2.12992E+001	  6.06882E-005
  2.29376E+001	  6.06882E-005
  2.45760E+001	  6.06882E-005
  2.62144E+001	  4.29964E-005
  2.94912E+001	  4.29964E-005
  3.27680E+001	  4.29964E-005
  3.60448E+001	  4.29964E-005
  3.93216E+001	  4.29964E-005
  4.25984E+001	  4.29964E-005
  4.58752E+001	  4.29964E-005
  4.91520E+001	  4.29964E-005
  5.24288E+001	  3.04325E-005
  5.89824E+001	  3.04325E-005
  6.55360E+001	  3.04325E-005
  7.20896E+001	  3.04325E-005
  7.86432E+001	  3.04325E-005
  8.51968E+001	  3.04325E-005
  9.17504E+001	  3.04325E-005
  9.83040E+001	  3.04325E-005
  1.04858E+002	  2.15295E-005
  1.17965E+002	  2.15295E-005
  1.31072E+002	  2.15295E-005
  1.44179E+002	  2.15295E-005
  1.57286E+002	  2.15295E-005
  1.70394E+002	  2.15295E-005
  1.83501E+002	  2.15295E-005
  1.96608E+002	  2.15295E-005
  2.09715E+002	  1.52273E-005
  2.35930E+002	  1.52273E-005
  2.62144E+002	  1.52273E-005
  2.88358E+002	  1.52273E-005
  3.14573E+002	  1.52273E-005
  3.40787E+002	  1.52273E-005
  3.67002E+002	  1.52273E-005
  3.93216E+002	  1.52273E-005
  4.19430E+002	  1.07686E-005
  4.71859E+002	  1.07686E-005
  5.24288E+002	  1.07686E-005
  5.76717E+002	  1.07686E-005
  6.29146E+002	  1.07686E-005
  6.81574E+002	  1.07686E-005
  7.34003E+002	  1.07686E-005
  7.86432E+002	  1.07686E-005
  8.38861E+002	  7.61504E-006
  9.43718E+002	  7.61504E-006
  1.04858E+003	  7.61504E-006
  1.15343E+003	  7.61504E-006
  1.25829E+003	  7.61504E-006
  1.36315E+003	  7.61504E-006
  1.46801E+003	  7.61504E-006
  1.57286E+003	  7.61504E-006
  1.67772E+003	  5.38481E-006
  1.88744E+003	  5.38481E-006
  2.09715E+003	  5.38481E-006
  2.30687E+003	  5.38481E-006
  2.51658E+003	  5.38481E-006
  2.72630E+003	  5.38481E-006
  2.93601E+003	  5.38481E-006
  3.14573E+003	  5.38481E-006
  3.35544E+003	  3.80769E-006
  3.77487E+003	  3.80769E-006
  4.19430E+003	  3.80769E-006
  4.61373E+003	  3.80769E-006
  5.03317E+003	  3.80769E-006
  5.45260E+003	  3.80769E-006
  5.87203E+003	  3.80769E-006
  6.29146E+003	  3.80769E-006
  6.71089E+003	  2.69247E-006
  7.54975E+003	  2.69247E-006
  8.38861E+003	  2.69247E-006
  9.22747E+003	  2.69247E-006
  1.00663E+004	  2.69247E-006
  1.09052E+004	  2.69247E-006
  1.17441E+004	  2.69247E-006
