ALV-7004 or ALV-7004/FAST Data
Date :	"3/27/2010"
Time :	"3:00:42 PM"
Samplename : 	"BSA 1 g/l in YCl3 83mM (second repetition)"
SampMemo(0) : 	""
SampMemo(1) : 	""
SampMemo(2) : 	""
SampMemo(3) : 	""
SampMemo(4) : 	""
SampMemo(5) : 	""
SampMemo(6) : 	""
SampMemo(7) : 	""
SampMemo(8) : 	""
SampMemo(9) : 	""
Temperature [K] :	     295.79528
Viscosity [cp]  :	       0.94023
Refractive Index:	       1.33200
Wavelength [nm] :	     632.80000
Angle [°]       :	      70.00000
Duration [s]    :	        70
Runs            :	         1
Mode            :	"C-CH0/1+1/0"
MeanCR0 [kHz]   :	     125.06071
MeanCR1 [kHz]   :	     143.66709
MeanCR2 [kHz]   :	       0.00000
MeanCR3 [kHz]   :	       0.00000

"Correlation"
  3.12500E-006	  3.22605E-001	  3.22095E-001	 -1.00000E+000	 -1.00000E+000
  6.25000E-006	  3.05773E-001	  2.82055E-001	 -1.00000E+000	 -1.00000E+000
  9.37500E-006	  3.22477E-001	  3.25155E-001	 -1.00000E+000	 -1.00000E+000
  1.25000E-005	  3.08196E-001	  3.10618E-001	 -1.00000E+000	 -1.00000E+000
  1.56250E-005	  3.29746E-001	  3.12914E-001	 -1.00000E+000	 -1.00000E+000
  1.87500E-005	  3.43773E-001	  3.76417E-001	 -1.00000E+000	 -1.00000E+000
  2.18750E-005	  3.41732E-001	  3.46068E-001	 -1.00000E+000	 -1.00000E+000
  2.50000E-005	  3.45303E-001	  3.51169E-001	 -1.00000E+000	 -1.00000E+000
  2.81250E-005	  3.21712E-001	  3.25155E-001	 -1.00000E+000	 -1.00000E+000
  3.12500E-005	  3.40585E-001	  3.42753E-001	 -1.00000E+000	 -1.00000E+000
  3.43750E-005	  3.18779E-001	  3.10363E-001	 -1.00000E+000	 -1.00000E+000
  3.75000E-005	  3.23625E-001	  3.20055E-001	 -1.00000E+000	 -1.00000E+000
  4.06250E-005	  3.19417E-001	  3.11638E-001	 -1.00000E+000	  5.79782E-001
  4.37500E-005	  3.17377E-001	  2.93276E-001	 -1.00000E+000	  5.68682E-001
  4.68750E-005	  3.56907E-001	  3.52444E-001	 -1.00000E+000	 -2.34086E-001
  5.00000E-005	  3.47216E-001	  3.46196E-001	 -1.00000E+000	  1.05010E+000
  5.62500E-005	  3.18907E-001	  3.13041E-001	 -1.00000E+000	  4.78104E-001
  6.25000E-005	  3.32105E-001	  3.32041E-001	 -1.00000E+000	  4.78215E-001
  6.87500E-005	  3.22987E-001	  3.22477E-001	 -9.49461E-001	  6.01538E-001
  7.50000E-005	  3.25347E-001	  3.15081E-001	  8.75934E-001	  4.11503E-001
  8.12500E-005	  3.34336E-001	  3.16994E-001	  4.23723E-001	  4.14833E-001
  8.75000E-005	  3.30638E-001	  3.38800E-001	  4.50970E-001	  4.07729E-001
  9.37500E-005	  3.30128E-001	  3.35867E-001	  4.18157E-001	  4.00514E-001
  1.00000E-004	  3.31404E-001	  3.36441E-001	  3.84318E-001	  3.88803E-001
  1.12500E-004	  3.26462E-001	  3.29236E-001	  3.98234E-001	  3.77536E-001
  1.25000E-004	  3.19034E-001	  3.09726E-001	  3.66446E-001	  3.84751E-001
  1.37500E-004	  3.36504E-001	  3.49511E-001	  3.54141E-001	  3.63328E-001
  1.50000E-004	  3.11957E-001	  3.11830E-001	  3.61759E-001	  3.67601E-001
  1.62500E-004	  3.32232E-001	  3.33189E-001	  3.34072E-001	  3.55280E-001
  1.75000E-004	  3.19895E-001	  3.14444E-001	  3.16420E-001	  3.56002E-001
  1.87500E-004	  3.24836E-001	  3.21904E-001	  3.28872E-001	  3.46566E-001
  2.00000E-004	  3.24996E-001	  3.25410E-001	  3.34548E-001	  3.45651E-001
  2.25000E-004	  3.13567E-001	  3.11001E-001	  3.25759E-001	  3.52061E-001
  2.50000E-004	  3.22079E-001	  3.26717E-001	  3.34292E-001	  3.51589E-001
  2.75000E-004	  3.20421E-001	  3.24868E-001	  3.29238E-001	  3.42459E-001
  3.00000E-004	  3.22318E-001	  3.26845E-001	  3.22756E-001	  3.34301E-001
  3.25000E-004	  3.23768E-001	  3.24263E-001	  3.22134E-001	  3.45651E-001
  3.50000E-004	  3.29475E-001	  3.35644E-001	  3.17885E-001	  3.33440E-001
  3.75000E-004	  3.27801E-001	  3.29108E-001	  3.39932E-001	  3.49758E-001
  4.00000E-004	  3.20437E-001	  3.20086E-001	  3.29769E-001	  3.43292E-001
  4.50000E-004	  3.20772E-001	  3.22716E-001	  3.22738E-001	  3.32261E-001
  5.00000E-004	  3.21449E-001	  3.24805E-001	  3.25906E-001	  3.40461E-001
  5.50000E-004	  3.20325E-001	  3.24836E-001	  3.26565E-001	  3.43722E-001
  6.00000E-004	  3.21393E-001	  3.31340E-001	  3.27590E-001	  3.35549E-001
  6.50000E-004	  3.30208E-001	  3.30304E-001	  3.34695E-001	  3.39448E-001
  7.00000E-004	  3.17106E-001	  3.12722E-001	  3.25173E-001	  3.31220E-001
  7.50000E-004	  3.18500E-001	  3.18190E-001	  3.14553E-001	  3.27391E-001
  8.00000E-004	  3.21951E-001	  3.23976E-001	  3.22390E-001	  3.28785E-001
  9.00000E-004	  3.18198E-001	  3.20262E-001	  3.27169E-001	  3.26871E-001
  1.00000E-003	  3.21625E-001	  3.22621E-001	  3.17116E-001	  3.24574E-001
  1.10000E-003	  3.19329E-001	  3.18899E-001	  3.14754E-001	  3.30596E-001
  1.20000E-003	  3.15791E-001	  3.17695E-001	  3.22674E-001	  3.28008E-001
  1.30000E-003	  3.16906E-001	  3.16994E-001	  3.18828E-001	  3.27550E-001
  1.40000E-003	  3.18959E-001	  3.17576E-001	  3.17949E-001	  3.27786E-001
  1.50000E-003	  3.15767E-001	  3.16110E-001	  3.16604E-001	  3.24588E-001
  1.60000E-003	  3.15018E-001	  3.15153E-001	  3.14553E-001	  3.23027E-001
  1.80000E-003	  3.16528E-001	  3.16667E-001	  3.12845E-001	  3.23603E-001
  2.00000E-003	  3.11290E-001	  3.12356E-001	  3.12273E-001	  3.20252E-001
  2.20000E-003	  3.12306E-001	  3.13495E-001	  3.10904E-001	  3.18327E-001
  2.40000E-003	  3.13189E-001	  3.11204E-001	  3.14054E-001	  3.16291E-001
  2.60000E-003	  3.07612E-001	  3.09204E-001	  3.10433E-001	  3.17179E-001
  2.80000E-003	  3.09028E-001	  3.09857E-001	  3.12717E-001	  3.18622E-001
  3.00000E-003	  3.08829E-001	  3.08199E-001	  3.09073E-001	  3.12756E-001
  3.20000E-003	  3.06985E-001	  3.06562E-001	  3.06119E-001	  3.12486E-001
  3.60000E-003	  3.07518E-001	  3.07351E-001	  3.06945E-001	  3.07105E-001
  4.00000E-003	  3.01531E-001	  3.01258E-001	  3.04272E-001	  3.09258E-001
  4.40000E-003	  2.99339E-001	  2.99716E-001	  3.01987E-001	  3.05548E-001
  4.80000E-003	  2.96494E-001	  2.96492E-001	  2.98462E-001	  3.02683E-001
  5.20000E-003	  2.95982E-001	  2.94466E-001	  2.99614E-001	  3.00504E-001
  5.60000E-003	  2.94873E-001	  2.95334E-001	  2.97130E-001	  2.99748E-001
  6.00000E-003	  2.91314E-001	  2.90678E-001	  2.94637E-001	  2.96713E-001
  6.40000E-003	  2.91024E-001	  2.90686E-001	  2.93269E-001	  2.94742E-001
  7.20000E-003	  2.86607E-001	  2.86178E-001	  2.89317E-001	  2.89019E-001
  8.00000E-003	  2.82078E-001	  2.82787E-001	  2.85987E-001	  2.87324E-001
  8.80000E-003	  2.79220E-001	  2.78682E-001	  2.82523E-001	  2.83778E-001
  9.60000E-003	  2.74858E-001	  2.74862E-001	  2.78293E-001	  2.79215E-001
  1.04000E-002	  2.72802E-001	  2.72964E-001	  2.75138E-001	  2.74744E-001
  1.12000E-002	  2.67691E-001	  2.68955E-001	  2.72966E-001	  2.72266E-001
  1.20000E-002	  2.63558E-001	  2.62932E-001	  2.67445E-001	  2.68149E-001
  1.28000E-002	  2.59662E-001	  2.59543E-001	  2.63414E-001	  2.63564E-001
  1.44000E-002	  2.53907E-001	  2.53530E-001	  2.58510E-001	  2.56909E-001
  1.60000E-002	  2.45822E-001	  2.46002E-001	  2.51203E-001	  2.50451E-001
  1.76000E-002	  2.41474E-001	  2.41785E-001	  2.44655E-001	  2.44438E-001
  1.92000E-002	  2.35486E-001	  2.35273E-001	  2.39825E-001	  2.39157E-001
  2.08000E-002	  2.28575E-001	  2.29705E-001	  2.33904E-001	  2.32524E-001
  2.24000E-002	  2.24243E-001	  2.24502E-001	  2.27479E-001	  2.26310E-001
  2.40000E-002	  2.16691E-001	  2.16855E-001	  2.20134E-001	  2.19755E-001
  2.56000E-002	  2.11397E-001	  2.11613E-001	  2.15716E-001	  2.15222E-001
  2.88000E-002	  2.00997E-001	  2.00960E-001	  2.04472E-001	  2.04424E-001
  3.20000E-002	  1.91115E-001	  1.91510E-001	  1.94492E-001	  1.94227E-001
  3.52000E-002	  1.81850E-001	  1.81760E-001	  1.84793E-001	  1.84774E-001
  3.84000E-002	  1.73491E-001	  1.73327E-001	  1.75954E-001	  1.75855E-001
  4.16000E-002	  1.64500E-001	  1.64475E-001	  1.66461E-001	  1.66833E-001
  4.48000E-002	  1.56631E-001	  1.56905E-001	  1.59108E-001	  1.59222E-001
  4.80000E-002	  1.48857E-001	  1.49477E-001	  1.51388E-001	  1.51218E-001
  5.12000E-002	  1.41469E-001	  1.41944E-001	  1.43888E-001	  1.43951E-001
  5.76000E-002	  1.28047E-001	  1.28120E-001	  1.30932E-001	  1.30016E-001
  6.40000E-002	  1.16204E-001	  1.15751E-001	  1.19005E-001	  1.17235E-001
  7.04000E-002	  1.05386E-001	  1.05908E-001	  1.07477E-001	  1.06803E-001
  7.68000E-002	  9.61265E-002	  9.67000E-002	  9.82947E-002	  9.78497E-002
  8.32000E-002	  8.72482E-002	  8.72954E-002	  8.84046E-002	  8.75833E-002
  8.96000E-002	  7.95170E-002	  7.98498E-002	  8.05564E-002	  8.02651E-002
  9.60000E-002	  7.22195E-002	  7.23077E-002	  7.39566E-002	  7.34341E-002
  1.02400E-001	  6.57483E-002	  6.58524E-002	  6.71950E-002	  6.66784E-002
  1.15200E-001	  5.46172E-002	  5.47432E-002	  5.55924E-002	  5.50804E-002
  1.28000E-001	  4.53198E-002	  4.54414E-002	  4.64349E-002	  4.59797E-002
  1.40800E-001	  3.82900E-002	  3.81622E-002	  3.90129E-002	  3.92269E-002
  1.53600E-001	  3.24899E-002	  3.27350E-002	  3.28317E-002	  3.26705E-002
  1.66400E-001	  2.69319E-002	  2.71746E-002	  2.79199E-002	  2.79915E-002
  1.79200E-001	  2.33005E-002	  2.31587E-002	  2.35999E-002	  2.36225E-002
  1.92000E-001	  1.98727E-002	  1.98905E-002	  2.00114E-002	  1.99857E-002
  2.04800E-001	  1.68123E-002	  1.69108E-002	  1.68453E-002	  1.70916E-002
  2.30400E-001	  1.25045E-002	  1.23858E-002	  1.25058E-002	  1.24253E-002
  2.56000E-001	  9.26027E-003	  9.33457E-003	  9.13740E-003	  9.46781E-003
  2.81600E-001	  6.78549E-003	  6.44522E-003	  6.89796E-003	  6.88444E-003
  3.07200E-001	  5.36032E-003	  5.15836E-003	  5.37898E-003	  5.18593E-003
  3.32800E-001	  3.96910E-003	  3.86605E-003	  4.20880E-003	  3.56675E-003
  3.58400E-001	  3.07594E-003	  2.96295E-003	  3.19605E-003	  2.92587E-003
  3.84000E-001	  2.25405E-003	  2.07304E-003	  2.31796E-003	  2.35968E-003
  4.09600E-001	  1.82535E-003	  1.56230E-003	  1.67272E-003	  1.96804E-003
  4.60800E-001	  1.14012E-003	  9.31560E-004	  1.35970E-003	  8.05445E-004
  5.12000E-001	  6.09389E-004	  5.66050E-004	  6.26751E-004	  7.04363E-004
  5.63200E-001	  3.06023E-004	  3.59547E-004	  3.56131E-005	  3.72744E-004
  6.14400E-001	 -1.22418E-004	 -6.94643E-005	 -1.11282E-004	 -1.12460E-004
  6.65600E-001	  9.97405E-005	 -9.24319E-006	 -2.85981E-005	 -4.56092E-005
  7.16800E-001	  3.77715E-004	  4.21512E-004	  4.33348E-004	  3.70480E-004
  7.68000E-001	  2.08255E-004	  2.48951E-004	 -1.00176E-004	  7.28978E-004
  8.19200E-001	  2.06044E-004	  3.76567E-004	  1.50169E-004	  1.05037E-004
  9.21600E-001	  2.83468E-004	  2.21415E-004	  3.37246E-004	  2.58334E-004
  1.02400E+000	  3.03680E-004	  1.33810E-004	  1.61903E-004	  4.49994E-004
  1.12640E+000	  1.90507E-005	 -1.84614E-004	 -1.15865E-006	  8.26931E-006
  1.22880E+000	  2.43481E-005	 -2.14652E-005	 -3.31647E-004	  5.20127E-004
  1.33120E+000	  3.91041E-004	  2.46493E-004	 -2.82612E-005	  5.42337E-004
  1.43360E+000	  5.29682E-004	  5.53527E-004	  1.31397E-004	  7.94449E-004
  1.53600E+000	  5.21930E-004	  4.76705E-004	  4.04667E-004	  3.53009E-004
  1.63840E+000	 -1.15957E-004	 -2.52831E-004	  3.74390E-005	 -1.29372E-004
  1.84320E+000	 -4.04140E-004	 -3.94475E-004	 -5.04429E-004	 -2.12761E-004
  2.04800E+000	 -3.83088E-004	 -2.55934E-004	 -4.62259E-004	 -3.02546E-004
  2.25280E+000	 -6.70741E-004	 -3.91875E-004	 -5.33644E-004	 -7.67044E-004
  2.45760E+000	 -2.41871E-004	 -2.16509E-004	 -1.35023E-004	 -3.19906E-004
  2.66240E+000	 -8.85300E-005	 -1.31623E-004	  1.80494E-005	  5.89869E-005
  2.86720E+000	  2.75998E-004	  5.18137E-004	  3.13895E-004	  2.13840E-004
  3.07200E+000	  4.71913E-004	  6.64651E-004	  2.24649E-004	  9.29158E-004
  3.27680E+000	  2.57443E-005	  3.33112E-006	 -2.68094E-004	  3.57164E-004
  3.68640E+000	  4.15212E-005	  3.39806E-004	 -4.11540E-005	  9.74551E-005
  4.09600E+000	 -1.54350E-004	 -2.04364E-004	 -5.57992E-005	 -2.54460E-004
  4.50560E+000	 -8.47701E-005	 -2.20574E-004	 -1.63622E-004	 -4.52698E-005
  4.91520E+000	 -4.24869E-004	 -4.85021E-004	 -5.45931E-004	 -3.07733E-004
  5.32480E+000	 -4.65160E-004	 -4.34629E-004	 -6.50475E-004	 -3.58183E-004
  5.73440E+000	 -2.32216E-004	 -3.04364E-004	 -1.48012E-004	 -3.59168E-004
  6.14400E+000	  1.89044E-004	  5.31984E-005	 -9.19082E-005	  3.78257E-004
  6.55360E+000	  8.34560E-005	  8.43714E-005	 -2.60806E-005	  1.39448E-004
  7.37280E+000	 -3.57326E-007	 -6.19005E-005	 -2.40552E-005	  7.72103E-005
  8.19200E+000	 -2.25882E-005	 -9.38737E-005	 -9.39266E-006	 -2.86951E-005
  9.01120E+000	  1.00103E-004	 -3.08535E-005	  1.26637E-005	  1.37529E-004
  9.83040E+000	 -2.78148E-004	 -3.98211E-004	 -2.13776E-004	 -3.26334E-004
  1.06496E+001	  6.62242E-005	  8.68046E-005	  4.14982E-005	  1.16909E-004
  1.14688E+001	  3.63996E-004	  4.48269E-004	  3.40662E-004	  4.76994E-004
  1.22880E+001	  1.71352E-004	  2.52537E-004	  1.61976E-004	  1.55906E-004
  1.31072E+001	  1.04298E-004	  1.42051E-004	  4.15174E-005	  1.62800E-004
  1.47456E+001	  5.59490E-005	  4.19391E-005	 -4.74813E-005	  1.54032E-004
  1.63840E+001	 -8.63284E-005	 -4.36773E-005	 -3.88176E-005	 -5.45000E-005
  1.80224E+001	 -5.15407E-005	 -4.63122E-005	  4.79045E-005	 -1.79323E-004
  1.96608E+001	 -9.29297E-005	  4.08302E-005	 -1.08496E-004	 -2.59565E-005
  2.12992E+001	  1.39116E-004	  1.95666E-004	  2.00059E-004	  1.41562E-004
  2.29376E+001	  1.56381E-005	  1.24518E-004	 -1.72966E-006	  1.11162E-005
  2.45760E+001	  1.90543E-004	  1.76039E-004	  9.23350E-005	  2.59056E-004
  2.62144E+001	  2.86398E-005	  7.12365E-006	 -7.57187E-005	  8.87511E-005
  2.94912E+001	  4.53216E-005	  9.88935E-005	  4.74461E-005	  6.91320E-005
  3.27680E+001	 -1.95218E-005	 -2.27324E-005	 -2.77426E-005	 -8.20697E-005
  3.60448E+001	 -4.10890E-005	 -7.32238E-005	 -4.42542E-005	  4.09126E-005
  3.93216E+001	 -2.72343E-005	 -1.38989E-004	 -9.75585E-005	  4.97940E-006
  4.25984E+001	  6.85498E-005	 -3.89844E-005	 -9.42405E-006	  9.43267E-005
  4.58752E+001	 -1.05140E-004	 -1.41920E-004	 -1.62229E-004	 -9.98428E-005
  4.91520E+001	 -3.03942E-007	 -6.58727E-005	 -2.63885E-005	 -1.87207E-005
  5.24288E+001	  1.13007E-004	  1.07618E-004	  1.39289E-004	  6.04254E-005
  5.89824E+001	 -6.77201E-005	 -1.62468E-004	 -9.02782E-005	 -7.22391E-005
  6.55360E+001	  2.25139E-005	  1.27694E-005	 -2.59906E-006	  5.85039E-005
  7.20896E+001	  2.77204E-006	 -4.00828E-006	  8.69626E-006	 -5.55811E-006
  7.86432E+001	 -1.27234E-005	 -5.35940E-005	 -1.59920E-005	 -2.06947E-005
  8.51968E+001	 -9.18117E-005	 -7.30785E-005	 -7.59688E-005	 -1.12560E-004
  9.17504E+001	  1.38393E-005	  1.28295E-005	 -5.41182E-005	  8.06714E-005
  9.83040E+001	 -1.31452E-004	 -1.23035E-004	 -1.41779E-004	 -1.33606E-004
  1.04858E+002	 -3.60102E-005	 -3.51171E-005	 -7.28008E-005	 -2.92858E-006
  1.17965E+002	  1.95816E-005	 -1.35476E-005	  9.39841E-006	  2.36437E-005
  1.31072E+002	  6.76512E-005	  5.89647E-005	  4.03607E-005	  7.70000E-005
  1.44179E+002	  7.71583E-005	  4.74982E-005	  5.36696E-005	  8.93630E-005
  1.57286E+002	 -1.36657E-005	  1.06178E-005	  1.89293E-005	 -3.58702E-005
  1.70394E+002	  1.25656E-005	  2.03494E-005	  2.22385E-005	  1.11056E-005
  1.83501E+002	 -2.69141E-005	 -2.94304E-005	 -1.17235E-005	 -5.74128E-005
  1.96608E+002	 -6.16741E-006	 -7.46673E-006	 -1.99636E-005	  2.72883E-006
  2.09715E+002	 -9.22725E-006	 -5.88146E-006	 -1.34162E-005	 -9.68901E-006
  2.35930E+002	 -2.70474E-005	 -2.18400E-005	 -2.21596E-005	 -2.05656E-005
  2.62144E+002	  1.00709E-005	  1.39381E-005	  1.57135E-005	 -2.21114E-006
  2.88358E+002	  1.68958E-006	 -1.11526E-005	 -6.54406E-006	  1.10119E-005
  3.14573E+002	  2.73462E-005	  2.94723E-005	  1.42766E-005	  2.64176E-005
  3.40787E+002	  3.96790E-005	  5.22262E-005	  3.73885E-005	  5.33861E-005
  3.67002E+002	 -2.08864E-005	 -5.24154E-005	 -3.28065E-005	 -1.73568E-005
  3.93216E+002	  3.67889E-005	  4.43513E-005	  3.32673E-005	  4.39211E-005
  4.19430E+002	 -1.78381E-005	 -1.98047E-005	 -2.07127E-005	 -9.32479E-006
  4.71859E+002	 -2.53904E-005	 -2.37119E-005	 -1.74039E-005	 -2.48985E-005
  5.24288E+002	  2.66911E-005	  2.71184E-005	  5.37032E-005	 -2.10878E-005
  5.76717E+002	  2.40043E-006	  1.28066E-005	  1.33850E-005	 -1.79407E-005
  6.29146E+002	  2.91680E-005	  2.98696E-005	  3.01286E-005	  2.47282E-005
  6.81574E+002	 -2.75794E-005	 -4.19495E-005	 -2.64140E-005	 -2.75318E-005
  7.34003E+002	 -3.58766E-005	 -3.11656E-005	 -3.71709E-005	 -3.03516E-005
  7.86432E+002	 -4.05777E-005	 -3.29905E-005	 -5.87298E-005	 -1.19538E-005
  8.38861E+002	  1.81985E-005	  1.14986E-005	  1.65162E-005	  3.23075E-005
  9.43718E+002	 -2.68209E-005	 -3.03579E-005	 -2.28774E-005	 -3.07311E-005
  1.04858E+003	  2.01982E-006	 -2.87278E-006	 -8.87668E-006	  2.11460E-005
  1.15343E+003	  3.82867E-005	  3.11254E-005	  3.87436E-005	  4.03709E-005
  1.25829E+003	  9.77574E-007	 -1.43882E-005	  7.44947E-006	 -1.18300E-005
  1.36315E+003	 -1.72033E-005	 -1.84005E-005	 -1.66687E-005	 -2.82281E-005
  1.46801E+003	 -1.50797E-005	 -1.28546E-005	 -8.73095E-006	 -1.54491E-005
  1.57286E+003	 -2.83249E-005	 -2.89579E-005	 -1.33168E-005	 -4.18925E-005
  1.67772E+003	 -1.76814E-005	 -2.31420E-005	 -1.44764E-005	 -1.87404E-005
  1.88744E+003	 -1.46307E-005	 -1.27466E-005	 -1.17247E-005	 -2.02881E-005
  2.09715E+003	  2.56785E-006	  4.67775E-006	 -2.25796E-006	  4.34879E-006
  2.30687E+003	  3.43703E-006	 -2.77141E-006	  1.85350E-006	  9.38414E-007
  2.51658E+003	 -9.17708E-006	 -1.43831E-005	 -1.06978E-005	 -7.24493E-006
  2.72630E+003	  3.62508E-006	  9.56396E-006	  1.12606E-005	 -1.38822E-006
  2.93601E+003	  2.82357E-005	  2.57312E-005	  3.31174E-005	  1.95716E-005
  3.14573E+003	 -6.41856E-006	 -1.06839E-005	 -1.20630E-006	 -2.97216E-006
  3.35544E+003	  5.21727E-006	  2.23069E-006	  8.66915E-006	  1.65451E-006
  3.77487E+003	  7.52045E-006	  1.16828E-005	  6.68303E-007	  1.25903E-005
  4.19430E+003	  8.91000E-006	  1.14554E-005	  9.46546E-006	  6.81252E-006
  4.61373E+003	  1.19072E-006	  6.66327E-006	  7.52985E-007	 -3.73045E-007
  5.03317E+003	 -2.74841E-006	  8.49022E-008	  4.61447E-006	 -8.50206E-006
  5.45260E+003	  2.28043E-006	  2.45382E-006	  1.55863E-006	  6.96955E-006
  5.87203E+003	 -2.87588E-006	 -1.43117E-006	  2.81165E-007	 -5.21928E-006
  6.29146E+003	 -3.31908E-006	 -1.10780E-005	 -2.46238E-006	 -1.69313E-006
  6.71089E+003	 -2.24272E-008	 -5.46484E-006	 -1.98811E-006	 -5.59249E-007
  7.54975E+003	 -1.44583E-007	  1.91419E-006	 -4.20082E-006	  1.47925E-006
  8.38861E+003	  1.91668E-007	  5.81383E-006	  1.62877E-006	 -1.70036E-006
  9.22747E+003	 -7.26356E-006	 -8.00262E-006	 -3.43525E-006	 -1.36330E-005
  1.00663E+004	 -4.68823E-006	 -3.65902E-006	 -8.50812E-006	 -1.50048E-006
  1.09052E+004	 -6.16562E-006	 -2.88283E-006	 -7.82806E-006	 -3.37193E-006
  1.17441E+004	  3.53417E-007	  3.77856E-006	  1.61487E-006	 -2.80104E-008

"Count Rate"
       0.27344	     125.56744	     144.68921	     125.56744	     144.68921
       0.54688	     125.85993	     145.04750	     125.85993	     145.04750
       0.82031	     128.73369	     145.85187	     128.73369	     145.85187
       1.09375	     123.28965	     142.54669	     123.28965	     142.54669
       1.36719	     124.88008	     142.27979	     124.88008	     142.27979
       1.64063	     124.60953	     141.45715	     124.60953	     141.45715
       1.91406	     125.34076	     143.09146	     125.34076	     143.09146
       2.18750	     125.13235	     144.35649	     125.13235	     144.35649
       2.46094	     125.69907	     145.23763	     125.69907	     145.23763
       2.73438	     124.61684	     141.49736	     124.61684	     141.49736
       3.00781	     123.77592	     143.39491	     123.77592	     143.39491
       3.28125	     124.37553	     145.79703	     124.37553	     145.79703
       3.55469	     129.04446	     148.52818	     129.04446	     148.52818
       3.82813	     125.74294	     144.41499	     125.74294	     144.41499
       4.10156	     126.81785	     144.73308	     126.81785	     144.73308
       4.37500	     124.21466	     142.92328	     124.21466	     142.92328
       4.64844	     123.40665	     141.15002	     123.40665	     141.15002
       4.92188	     128.35710	     147.20830	     128.35710	     147.20830
       5.19531	     123.22384	     140.72226	     123.22384	     140.72226
       5.46875	     125.63691	     144.26874	     125.63691	     144.26874
       5.74219	     125.59669	     143.72763	     125.59669	     143.72763
       6.01563	     124.65706	     145.59227	     124.65706	     145.59227
       6.28906	     125.09214	     141.48274	     125.09214	     141.48274
       6.56250	     122.22570	     140.21771	     122.22570	     140.21771
       6.83594	     125.21645	     144.06400	     125.21645	     144.06400
       7.10938	     125.22742	     143.45708	     125.22742	     143.45708
       7.38281	     122.77779	     140.69301	     122.77779	     140.69301
       7.65625	     123.34449	     142.84283	     123.34449	     142.84283
       7.92969	     124.06476	     142.95618	     124.06476	     142.95618
       8.20313	     123.31890	     142.76605	     123.31890	     142.76605
       8.47656	     124.86546	     142.48453	     124.86546	     142.48453
       8.75000	     125.12870	     144.54295	     125.12870	     144.54295
       9.02344	     128.46312	     149.21188	     128.46312	     149.21188
       9.29688	     123.65527	     143.43880	     123.65527	     143.43880
       9.57031	     124.80696	     144.29434	     124.80696	     144.29434
       9.84375	     125.02633	     144.77695	     125.02633	     144.77695
      10.11719	     124.90933	     141.80814	     124.90933	     141.80814
      10.39063	     123.17631	     140.33105	     123.17631	     140.33105
      10.66406	     124.72287	     142.49916	     124.72287	     142.49916
      10.93750	     122.12699	     141.10616	     122.12699	     141.10616
      11.21094	     125.58572	     144.63802	     125.58572	     144.63802
      11.48438	     126.53632	     144.78792	     126.53632	     144.78792
      11.75781	     126.70451	     145.23763	     126.70451	     145.23763
      12.03125	     124.44135	     141.92514	     124.44135	     141.92514
      12.30469	     124.60587	     142.86478	     124.60587	     142.86478
      12.57813	     123.64064	     143.71300	     123.64064	     143.71300
      12.85156	     125.28592	     145.01460	     125.28592	     145.01460
      13.12500	     125.19086	     143.99818	     125.19086	     143.99818
      13.39844	     121.39941	     139.72412	     121.39941	     139.72412
      13.67188	     124.70093	     142.59422	     124.70093	     142.59422
      13.94531	     124.96783	     143.19017	     124.96783	     143.19017
      14.21875	     123.18362	     142.30173	     123.18362	     142.30173
      14.49219	     123.96970	     141.38768	     123.96970	     141.38768
      14.76563	     124.24025	     143.04758	     124.24025	     143.04758
      15.03906	     125.49798	     144.90857	     125.49798	     144.90857
      15.31250	     126.34986	     144.83179	     126.34986	     144.83179
      15.58594	     123.50536	     141.50468	     123.50536	     141.50468
      15.85938	     125.34441	     144.07497	     125.34441	     144.07497
      16.13281	     125.17989	     144.17734	     125.17989	     144.17734
      16.40625	     127.43940	     148.05653	     127.43940	     148.05653
      16.67969	     125.86725	     143.34738	     125.86725	     143.34738
      16.95313	     124.92396	     142.74413	     124.92396	     142.74413
      17.22656	     126.55460	     146.66353	     126.55460	     146.66353
      17.50000	     124.21101	     144.04205	     124.21101	     144.04205
      17.77344	     123.49805	     140.21771	     123.49805	     140.21771
      18.04688	     121.58953	     137.99110	     121.58953	     137.99110
      18.32031	     125.51626	     143.20845	     125.51626	     143.20845
      18.59375	     125.34441	     144.35649	     125.34441	     144.35649
      18.86719	     122.88381	     142.28709	     122.88381	     142.28709
      19.14063	     123.92216	     142.14085	     123.92216	     142.14085
      19.41406	     126.09759	     144.89760	     126.09759	     144.89760
      19.68750	     125.76853	     145.21935	     125.76853	     145.21935
      19.96094	     127.16885	     145.08772	     127.16885	     145.08772
      20.23438	     121.64072	     139.94716	     121.64072	     139.94716
      20.50781	     126.92023	     144.90857	     126.92023	     144.90857
      20.78125	     123.84173	     141.98364	     123.84173	     141.98364
      21.05469	     126.29137	     146.53557	     126.29137	     146.53557
      21.32813	     123.86367	     142.34193	     123.86367	     142.34193
      21.60156	     122.84725	     141.26337	     122.84725	     141.26337
      21.87500	     124.22563	     144.46617	     124.22563	     144.46617
      22.14844	     124.82890	     145.04385	     124.82890	     145.04385
      22.42188	     124.96417	     141.88127	     124.96417	     141.88127
      22.69531	     123.04469	     141.55586	     123.04469	     141.55586
      22.96875	     125.76488	     144.09325	     125.76488	     144.09325
      23.24219	     128.30226	     146.15167	     128.30226	     146.15167
      23.51563	     124.64974	     141.92879	     124.64974	     141.92879
      23.78906	     126.61676	     144.57951	     126.61676	     144.57951
      24.06250	     127.77943	     147.60316	     127.77943	     147.60316
      24.33594	     124.24757	     142.72585	     124.24757	     142.72585
      24.60938	     124.46693	     143.28523	     124.46693	     143.28523
      24.88281	     126.06834	     144.89029	     126.06834	     144.89029
      25.15625	     124.97149	     144.37843	     124.97149	     144.37843
      25.42969	     126.85442	     143.93237	     126.85442	     143.93237
      25.70313	     125.27129	     144.36015	     125.27129	     144.36015
      25.97656	     123.49074	     142.76605	     123.49074	     142.76605
      26.25000	     122.55110	     140.03490	     122.55110	     140.03490
      26.52344	     125.31882	     141.63264	     125.31882	     141.63264
      26.79688	     127.98417	     148.00900	     127.98417	     148.00900
      27.07031	     125.72831	     143.76053	     125.72831	     143.76053
      27.34375	     125.72831	     144.52101	     125.72831	     144.52101
      27.61719	     123.83076	     143.62160	     123.83076	     143.62160
      27.89063	     124.41209	     143.78247	     124.41209	     143.78247
      28.16406	     127.27122	     145.24860	     127.27122	     145.24860
      28.43750	     127.84158	     146.29427	     127.84158	     146.29427
      28.71094	     127.49059	     147.35089	     127.49059	     147.35089
      28.98438	     126.64967	     143.63623	     126.64967	     143.63623
      29.25781	     125.07751	     143.02930	     125.07751	     143.02930
      29.53125	     126.93119	     144.67091	     126.93119	     144.67091
      29.80469	     126.10124	     143.57773	     126.10124	     143.57773
      30.07813	     123.73570	     139.79724	     123.73570	     139.79724
      30.35156	     123.98432	     142.12988	     123.98432	     142.12988
      30.62500	     123.97335	     143.85925	     123.97335	     143.85925
      30.89844	     127.09572	     145.95058	     127.09572	     145.95058
      31.17188	     124.37187	     143.37663	     124.37187	     143.37663
      31.44531	     126.30233	     144.91223	     126.30233	     144.91223
      31.71875	     125.39194	     144.04572	     125.39194	     144.04572
      31.99219	     126.09027	     142.91595	     126.09027	     142.91595
      32.26563	     124.48156	     143.27792	     124.48156	     143.27792
      32.53906	     124.85083	     142.59787	     124.85083	     142.59787
      32.81250	     127.26756	     146.79150	     127.26756	     146.79150
      33.08594	     123.22749	     141.23778	     123.22749	     141.23778
      33.35938	     123.65892	     140.09706	     123.65892	     140.09706
      33.63281	     125.23473	     141.92514	     125.23473	     141.92514
      33.90625	     126.60580	     145.25591	     126.60580	     145.25591
      34.17969	     124.60953	     143.68010	     124.60953	     143.68010
      34.45313	     124.88740	     140.86850	     124.88740	     140.86850
      34.72656	     124.21832	     143.56676	     124.21832	     143.56676
      35.00000	     125.66982	     145.26321	     125.66982	     145.26321
      35.27344	     123.66624	     142.45163	     123.66624	     142.45163
      35.54688	     124.29144	     144.44424	     124.29144	     144.44424
      35.82031	     124.55834	     143.34738	     124.55834	     143.34738
      36.09375	     124.65706	     144.64168	     124.65706	     144.64168
      36.36719	     123.93679	     142.03482	     123.93679	     142.03482
      36.64063	     124.99342	     144.46252	     124.99342	     144.46252
      36.91406	     123.77592	     142.46991	     123.77592	     142.46991
      37.18750	     126.79591	     146.09683	     126.79591	     146.09683
      37.46094	     126.40105	     144.45155	     126.40105	     144.45155
      37.73438	     125.82337	     146.12242	     125.82337	     146.12242
      38.00781	     125.39560	     144.78061	     125.39560	     144.78061
      38.28125	     124.94224	     143.02565	     124.94224	     143.02565
      38.55469	     125.16892	     145.04385	     125.16892	     145.04385
      38.82813	     125.09945	     143.81538	     125.09945	     143.81538
      39.10156	     123.26040	     142.62712	     123.26040	     142.62712
      39.37500	     124.76308	     144.02744	     124.76308	     144.02744
      39.64844	     122.34636	     141.46446	     122.34636	     141.46446
      39.92188	     124.00626	     143.16458	     124.00626	     143.16458
      40.19531	     126.83614	     144.26509	     126.83614	     144.26509
      40.46875	     124.86911	     144.34187	     124.86911	     144.34187
      40.74219	     122.56207	     142.14085	     122.56207	     142.14085
      41.01563	     126.07931	     145.19009	     126.07931	     145.19009
      41.28906	     127.90008	     146.26135	     127.90008	     146.26135
      41.56250	     125.45776	     145.07310	     125.45776	     145.07310
      41.83594	     124.67534	     142.46260	     124.67534	     142.46260
      42.10938	     125.73928	     143.95796	     125.73928	     143.95796
      42.38281	     125.49432	     144.11519	     125.49432	     144.11519
      42.65625	     123.89658	     142.69293	     123.89658	     142.69293
      42.92969	     125.35173	     143.75688	     125.35173	     143.75688
      43.20313	     125.80144	     144.90126	     125.80144	     144.90126
      43.47656	     126.73010	     144.65630	     126.73010	     144.65630
      43.75000	     122.21108	     142.17010	     122.21108	     142.17010
      44.02344	     125.20914	     144.26874	     125.20914	     144.26874
      44.29688	     125.49432	     144.50273	     125.49432	     144.50273
      44.57031	     125.85993	     142.43335	     125.85993	     142.43335
      44.84375	     124.61684	     142.79897	     124.61684	     142.79897
      45.11719	     123.81614	     142.17375	     123.81614	     142.17375
      45.39063	     125.90746	     143.63623	     125.90746	     143.63623
      45.66406	     125.13235	     144.40768	     125.13235	     144.40768
      45.93750	     126.90560	     146.06758	     126.90560	     146.06758
      46.21094	     121.48716	     140.81732	     121.48716	     140.81732
      46.48438	     124.55103	     142.12622	     124.55103	     142.12622
      46.75781	     122.06483	     142.56131	     122.06483	     142.56131
      47.03125	     125.78681	     144.67091	     125.78681	     144.67091
      47.30469	     126.39374	     144.54295	     126.39374	     144.54295
      47.57813	     124.04282	     143.76419	     124.04282	     143.76419
      47.85156	     125.35538	     143.07683	     125.35538	     143.07683
      48.12500	     121.10326	     140.26524	     121.10326	     140.26524
      48.39844	     123.52730	     141.95439	     123.52730	     141.95439
      48.67188	     123.53827	     141.87395	     123.53827	     141.87395
      48.94531	     123.23846	     142.20667	     123.23846	     142.20667
      49.21875	     126.63139	     145.65077	     126.63139	     145.65077
      49.49219	     125.35538	     144.84276	     125.35538	     144.84276
      49.76563	     125.80509	     144.59048	     125.80509	     144.59048
      50.03906	     128.67152	     148.02362	     128.67152	     148.02362
      50.31250	     124.09035	     142.32732	     124.09035	     142.32732
      50.58594	     127.00797	     145.95058	     127.00797	     145.95058
      50.85938	     122.62788	     140.56139	     122.62788	     140.56139
      51.13281	     125.08483	     142.75508	     125.08483	     142.75508
      51.40625	     123.51999	     141.34381	     123.51999	     141.34381
      51.67969	     124.00626	     142.37485	     124.00626	     142.37485
      51.95313	     124.89471	     142.47722	     124.89471	     142.47722
      52.22656	     121.96612	     140.58698	     121.96612	     140.58698
      52.50000	     124.32800	     143.38029	     124.32800	     143.38029
      52.77344	     124.30606	     141.06593	     124.30606	     141.06593
      53.04688	     124.57662	     143.39127	     124.57662	     143.39127
      53.32031	     123.91486	     142.10794	     123.91486	     142.10794
      53.59375	     126.52901	     144.94879	     126.52901	     144.94879
      53.86719	     124.97514	     144.46983	     124.97514	     144.46983
      54.14063	     126.17436	     145.06944	     126.17436	     145.06944
      54.41406	     126.39008	     145.92133	     126.39008	     145.92133
      54.68750	     124.92030	     143.70569	     124.92030	     143.70569
      54.96094	     123.56020	     142.50647	     123.56020	     142.50647
      55.23438	     124.86911	     143.44611	     124.86911	     143.44611
      55.50781	     122.77413	     141.54855	     122.77413	     141.54855
      55.78125	     126.35718	     144.27606	     126.35718	     144.27606
      56.05469	     126.17802	     145.50087	     126.17802	     145.50087
      56.32813	     126.31330	     144.08228	     126.31330	     144.08228
      56.60156	     126.46686	     143.09511	     126.46686	     143.09511
      56.87500	     127.54909	     145.70927	     127.54909	     145.70927
      57.14844	     125.73563	     146.84999	     125.73563	     146.84999
      57.42188	     127.34800	     143.31448	     127.34800	     143.31448
      57.69531	     124.17078	     143.21211	     124.17078	     143.21211
      57.96875	     125.27129	     144.65996	     125.27129	     144.65996
      58.24219	     123.04469	     142.03117	     123.04469	     142.03117
      58.51563	     123.39934	     141.59242	     123.39934	     141.59242
      58.78906	     126.62408	     146.68913	     126.62408	     146.68913
      59.06250	     126.77032	     145.53012	     126.77032	     145.53012
      59.33594	     124.50349	     143.80075	     124.50349	     143.80075
      59.60938	     124.87277	     144.29068	     124.87277	     144.29068
      59.88281	     127.57468	     147.76038	     127.57468	     147.76038
      60.15625	     125.73563	     144.66727	     125.73563	     144.66727
      60.42969	     128.40828	     147.15712	     128.40828	     147.15712
      60.70313	     125.00805	     143.53386	     125.00805	     143.53386
      60.97656	     124.07572	     143.59967	     124.07572	     143.59967
      61.25000	     127.63318	     148.10040	     127.63318	     148.10040
      61.52344	     125.02998	     141.78986	     125.02998	     141.78986
      61.79688	     124.58028	     143.10974	     124.58028	     143.10974
      62.07031	     125.02633	     142.98909	     125.02633	     142.98909
      62.34375	     127.51618	     145.43506	     127.51618	     145.43506
      62.61719	     125.88918	     141.88127	     125.88918	     141.88127
      62.89063	     124.28047	     144.03841	     124.28047	     144.03841
      63.16406	     123.28600	     141.12810	     123.28600	     141.12810
      63.43750	     121.49447	     139.98006	     121.49447	     139.98006
      63.71094	     126.60213	     144.26509	     126.60213	     144.26509
      63.98438	     125.58207	     145.47162	     125.58207	     145.47162
      64.25781	     128.16698	     146.46976	     128.16698	     146.46976
      64.53125	     123.73570	     142.65637	     123.73570	     142.65637
      64.80469	     127.08109	     146.89752	     127.08109	     146.89752
      65.07813	     126.31330	     144.61974	     126.31330	     144.61974
      65.35156	     126.18533	     143.99088	     126.18533	     143.99088
      65.62500	     121.59684	     140.24330	     121.59684	     140.24330
      65.89844	     125.20548	     143.69107	     125.20548	     143.69107
      66.17188	     123.08125	     141.90320	     123.08125	     141.90320
      66.44531	     124.15616	     145.48625	     124.15616	     145.48625
      66.71875	     127.65511	     144.88664	     127.65511	     144.88664
      66.99219	     123.92948	     142.87939	     123.92948	     142.87939
      67.26563	     126.36449	     145.32172	     126.36449	     145.32172
      67.53906	     125.85628	     144.83545	     125.85628	     144.83545
      67.81250	     122.68638	     141.96170	     122.68638	     141.96170
      68.08594	     126.59848	     145.85187	     126.59848	     145.85187
      68.35938	     121.43231	     138.75159	     121.43231	     138.75159
      68.63281	     125.32613	     142.51378	     125.32613	     142.51378
      68.90625	     123.70280	     143.44611	     123.70280	     143.44611
      69.17969	     126.45589	     144.23584	     126.45589	     144.23584
      69.45313	     121.28973	     139.91425	     121.28973	     139.91425

Monitor Diode	1630553.72
"StandardDeviation"
  3.12500E-006	  2.00472E-002
  6.25000E-006	  2.00473E-002
  9.37500E-006	  2.00471E-002
  1.25000E-005	  2.00472E-002
  1.56250E-005	  2.00471E-002
  1.87500E-005	  2.00471E-002
  2.18750E-005	  2.00473E-002
  2.50000E-005	  2.00472E-002
  2.81250E-005	  1.99564E-002
  3.12500E-005	  2.00471E-002
  3.43750E-005	  1.98777E-002
  3.75000E-005	  1.99155E-002
  4.06250E-005	  1.98828E-002
  4.37500E-005	  1.98669E-002
  4.68750E-005	  2.00471E-002
  5.00000E-005	  1.41331E-002
  5.62500E-005	  1.39842E-002
  6.25000E-005	  1.40537E-002
  6.87500E-005	  1.40058E-002
  7.50000E-005	  1.40180E-002
  8.12500E-005	  1.40656E-002
  8.75000E-005	  1.40460E-002
  9.37500E-005	  1.40434E-002
  1.00000E-004	  9.94668E-003
  1.12500E-004	  9.92812E-003
  1.25000E-004	  9.90055E-003
  1.37500E-004	  9.96555E-003
  1.50000E-004	  9.87409E-003
  1.62500E-004	  9.94974E-003
  1.75000E-004	  9.90388E-003
  1.87500E-004	  9.92228E-003
  2.00000E-004	  7.03317E-003
  2.25000E-004	  7.00307E-003
  2.50000E-004	  7.02552E-003
  2.75000E-004	  7.02113E-003
  3.00000E-004	  7.02615E-003
  3.25000E-004	  7.03016E-003
  3.50000E-004	  7.04486E-003
  3.75000E-004	  7.04050E-003
  4.00000E-004	  4.98788E-003
  4.50000E-004	  4.98837E-003
  5.00000E-004	  4.98973E-003
  5.50000E-004	  4.98758E-003
  6.00000E-004	  4.98945E-003
  6.50000E-004	  5.00578E-003
  7.00000E-004	  4.98161E-003
  7.50000E-004	  4.98409E-003
  8.00000E-004	  3.56145E-003
  9.00000E-004	  3.55663E-003
  1.00000E-003	  3.56085E-003
  1.10000E-003	  3.55791E-003
  1.20000E-003	  3.55336E-003
  1.30000E-003	  3.55456E-003
  1.40000E-003	  3.55729E-003
  1.50000E-003	  3.55313E-003
  1.60000E-003	  2.55675E-003
  1.80000E-003	  2.55809E-003
  2.00000E-003	  2.55298E-003
  2.20000E-003	  2.55378E-003
  2.40000E-003	  2.55437E-003
  2.60000E-003	  2.54930E-003
  2.80000E-003	  2.55050E-003
  3.00000E-003	  2.55009E-003
  3.20000E-003	  1.86328E-003
  3.60000E-003	  1.86316E-003
  4.00000E-003	  1.85904E-003
  4.40000E-003	  1.85741E-003
  4.80000E-003	  1.85522E-003
  5.20000E-003	  1.85470E-003
  5.60000E-003	  1.85351E-003
  6.00000E-003	  1.85091E-003
  6.40000E-003	  1.38954E-003
  7.20000E-003	  1.38672E-003
  8.00000E-003	  1.38374E-003
  8.80000E-003	  1.38187E-003
  9.60000E-003	  1.37917E-003
  1.04000E-002	  1.37729E-003
  1.12000E-002	  1.37447E-003
  1.20000E-002	  1.37161E-003
  1.28000E-002	  1.07059E-003
  1.44000E-002	  1.06641E-003
  1.60000E-002	  1.06204E-003
  1.76000E-002	  1.05865E-003
  1.92000E-002	  1.05488E-003
  2.08000E-002	  1.05075E-003
  2.24000E-002	  1.04745E-003
  2.40000E-002	  1.04321E-003
  2.56000E-002	  8.53946E-004
  2.88000E-002	  8.46547E-004
  3.20000E-002	  8.40008E-004
  3.52000E-002	  8.33612E-004
  3.84000E-002	  8.27697E-004
  4.16000E-002	  8.21594E-004
  4.48000E-002	  8.15851E-004
  4.80000E-002	  8.10187E-004
  5.12000E-002	  6.93811E-004
  5.76000E-002	  6.82658E-004
  6.40000E-002	  6.73046E-004
  7.04000E-002	  6.64117E-004
  7.68000E-002	  6.55893E-004
  8.32000E-002	  6.48018E-004
  8.96000E-002	  6.41045E-004
  9.60000E-002	  6.34397E-004
  1.02400E-001	  5.60957E-004
  1.15200E-001	  5.48989E-004
  1.28000E-001	  5.38820E-004
  1.40800E-001	  5.30181E-004
  1.53600E-001	  5.22777E-004
  1.66400E-001	  5.16152E-004
  1.79200E-001	  5.11469E-004
  1.92000E-001	  5.07770E-004
  2.04800E-001	  4.56872E-004
  2.30400E-001	  4.51471E-004
  2.56000E-001	  4.47291E-004
  2.81600E-001	  4.44068E-004
  3.07200E-001	  4.35736E-004
  3.32800E-001	  4.35736E-004
  3.58400E-001	  4.35736E-004
  3.84000E-001	  4.35736E-004
  4.09600E-001	  3.94043E-004
  4.60800E-001	  3.94043E-004
  5.12000E-001	  3.94043E-004
  5.63200E-001	  3.94043E-004
  6.14400E-001	  3.94043E-004
  6.65600E-001	  3.94043E-004
  7.16800E-001	  3.94043E-004
  7.68000E-001	  3.94043E-004
  8.19200E-001	  3.64298E-004
  9.21600E-001	  3.64298E-004
  1.02400E+000	  3.64298E-004
  1.12640E+000	  3.64298E-004
  1.22880E+000	  3.64298E-004
  1.33120E+000	  3.64298E-004
  1.43360E+000	  3.64298E-004
  1.53600E+000	  3.64298E-004
  1.63840E+000	  3.14282E-004
  1.84320E+000	  3.14282E-004
  2.04800E+000	  3.14282E-004
  2.25280E+000	  3.14282E-004
  2.45760E+000	  3.14282E-004
  2.66240E+000	  3.14282E-004
  2.86720E+000	  3.14282E-004
  3.07200E+000	  3.14282E-004
  3.27680E+000	  2.55683E-004
  3.68640E+000	  2.55683E-004
  4.09600E+000	  2.55683E-004
  4.50560E+000	  2.55683E-004
  4.91520E+000	  2.55683E-004
  5.32480E+000	  2.55683E-004
  5.73440E+000	  2.55683E-004
  6.14400E+000	  2.55683E-004
  6.55360E+000	  1.96148E-004
  7.37280E+000	  1.96148E-004
  8.19200E+000	  1.96148E-004
  9.01120E+000	  1.96148E-004
  9.83040E+000	  1.96148E-004
  1.06496E+001	  1.96148E-004
  1.14688E+001	  1.96148E-004
  1.22880E+001	  1.96148E-004
  1.31072E+001	  1.44343E-004
  1.47456E+001	  1.44343E-004
  1.63840E+001	  1.44343E-004
  1.80224E+001	  1.44343E-004
  1.96608E+001	  1.44343E-004
  2.12992E+001	  1.44343E-004
  2.29376E+001	  1.44343E-004
  2.45760E+001	  1.44343E-004
  2.62144E+001	  1.04062E-004
  2.94912E+001	  1.04062E-004
  3.27680E+001	  1.04062E-004
  3.60448E+001	  1.04062E-004
  3.93216E+001	  1.04062E-004
  4.25984E+001	  1.04062E-004
  4.58752E+001	  1.04062E-004
  4.91520E+001	  1.04062E-004
  5.24288E+001	  7.42889E-005
  5.89824E+001	  7.42889E-005
  6.55360E+001	  7.42889E-005
  7.20896E+001	  7.42889E-005
  7.86432E+001	  7.42889E-005
  8.51968E+001	  7.42889E-005
  9.17504E+001	  7.42889E-005
  9.83040E+001	  7.42889E-005
  1.04858E+002	  5.27797E-005
  1.17965E+002	  5.27797E-005
  1.31072E+002	  5.27797E-005
  1.44179E+002	  5.27797E-005
  1.57286E+002	  5.27797E-005
  1.70394E+002	  5.27797E-005
  1.83501E+002	  5.27797E-005
  1.96608E+002	  5.27797E-005
  2.09715E+002	  3.74091E-005
  2.35930E+002	  3.74091E-005
  2.62144E+002	  3.74091E-005
  2.88358E+002	  3.74091E-005
  3.14573E+002	  3.74091E-005
  3.40787E+002	  3.74091E-005
  3.67002E+002	  3.74091E-005
  3.93216E+002	  3.74091E-005
  4.19430E+002	  2.64834E-005
  4.71859E+002	  2.64834E-005
  5.24288E+002	  2.64834E-005
  5.76717E+002	  2.64834E-005
  6.29146E+002	  2.64834E-005
  6.81574E+002	  2.64834E-005
  7.34003E+002	  2.64834E-005
  7.86432E+002	  2.64834E-005
  8.38861E+002	  1.87377E-005
  9.43718E+002	  1.87377E-005
  1.04858E+003	  1.87377E-005
  1.15343E+003	  1.87377E-005
  1.25829E+003	  1.87377E-005
  1.36315E+003	  1.87377E-005
  1.46801E+003	  1.87377E-005
  1.57286E+003	  1.87377E-005
  1.67772E+003	  1.32534E-005
  1.88744E+003	  1.32534E-005
  2.09715E+003	  1.32534E-005
  2.30687E+003	  1.32534E-005
  2.51658E+003	  1.32534E-005
  2.72630E+003	  1.32534E-005
  2.93601E+003	  1.32534E-005
  3.14573E+003	  1.32534E-005
  3.35544E+003	  9.37296E-006
  3.77487E+003	  9.37296E-006
  4.19430E+003	  9.37296E-006
  4.61373E+003	  9.37296E-006
  5.03317E+003	  9.37296E-006
  5.45260E+003	  9.37296E-006
  5.87203E+003	  9.37296E-006
  6.29146E+003	  9.37296E-006
  6.71089E+003	  6.62817E-006
  7.54975E+003	  6.62817E-006
  8.38861E+003	  6.62817E-006
  9.22747E+003	  6.62817E-006
  1.00663E+004	  6.62817E-006
  1.09052E+004	  6.62817E-006
  1.17441E+004	  6.62817E-006
