ALV-7004 or ALV-7004/FAST Data
Date :	"3/27/2010"
Time :	"2:56:28 PM"
Samplename : 	"BSA 1 g/l in YCl3 83mM (second repetition)"
SampMemo(0) : 	""
SampMemo(1) : 	""
SampMemo(2) : 	""
SampMemo(3) : 	""
SampMemo(4) : 	""
SampMemo(5) : 	""
SampMemo(6) : 	""
SampMemo(7) : 	""
SampMemo(8) : 	""
SampMemo(9) : 	""
Temperature [K] :	     295.79330
Viscosity [cp]  :	       0.94020
Refractive Index:	       1.33200
Wavelength [nm] :	     632.80000
Angle [°]       :	      50.00000
Duration [s]    :	        70
Runs            :	         1
Mode            :	"C-CH0/1+1/0"
MeanCR0 [kHz]   :	     154.76075
MeanCR1 [kHz]   :	     178.09781
MeanCR2 [kHz]   :	       0.00000
MeanCR3 [kHz]   :	       0.00000

"Correlation"
  3.12500E-006	  3.13941E-001	  3.11530E-001	 -1.00000E+000	 -1.00000E+000
  6.25000E-006	  3.38712E-001	  3.34971E-001	 -1.00000E+000	 -1.00000E+000
  9.37500E-006	  3.30649E-001	  3.25163E-001	 -1.00000E+000	 -1.00000E+000
  1.25000E-005	  3.02304E-001	  2.80276E-001	 -1.00000E+000	 -1.00000E+000
  1.56250E-005	  3.43616E-001	  3.45113E-001	 -1.00000E+000	 -1.00000E+000
  1.87500E-005	  3.29901E-001	  3.40624E-001	 -1.00000E+000	 -1.00000E+000
  2.18750E-005	  3.39211E-001	  3.30815E-001	 -1.00000E+000	 -1.00000E+000
  2.50000E-005	  3.29070E-001	  3.42453E-001	 -1.00000E+000	 -1.00000E+000
  2.81250E-005	  3.10200E-001	  3.04382E-001	 -1.00000E+000	 -1.00000E+000
  3.12500E-005	  3.62319E-001	  3.57747E-001	 -1.00000E+000	 -1.00000E+000
  3.43750E-005	  3.06044E-001	  2.86926E-001	 -1.00000E+000	 -1.00000E+000
  3.75000E-005	  3.32311E-001	  3.13525E-001	 -1.00000E+000	 -1.00000E+000
  4.06250E-005	  3.32145E-001	  3.41289E-001	 -1.00000E+000	  5.27270E-001
  4.37500E-005	  3.41621E-001	  3.31314E-001	 -1.00000E+000	  5.05600E-001
  4.68750E-005	  3.37881E-001	  3.36301E-001	 -1.00000E+000	 -3.01374E-001
  5.00000E-005	  3.36218E-001	  3.24248E-001	 -1.00000E+000	  9.70846E-001
  5.62500E-005	  3.14523E-001	  3.25329E-001	 -1.00000E+000	  4.85592E-001
  6.25000E-005	  3.36177E-001	  3.30566E-001	 -1.00000E+000	  4.99389E-001
  6.87500E-005	  3.37839E-001	  3.40624E-001	 -9.56667E-001	  5.47206E-001
  7.50000E-005	  3.25994E-001	  3.07291E-001	  8.51760E-001	  3.77100E-001
  8.12500E-005	  3.35055E-001	  3.30981E-001	  4.28375E-001	  3.96097E-001
  8.75000E-005	  3.25495E-001	  3.21755E-001	  4.51429E-001	  3.87140E-001
  9.37500E-005	  3.29568E-001	  3.41206E-001	  4.42819E-001	  3.96458E-001
  1.00000E-004	  3.23396E-001	  3.17682E-001	  3.78106E-001	  3.66482E-001
  1.12500E-004	  3.28176E-001	  3.20632E-001	  3.77963E-001	  3.55358E-001
  1.25000E-004	  3.23625E-001	  3.18887E-001	  3.67201E-001	  3.56153E-001
  1.37500E-004	  3.24020E-001	  3.11863E-001	  3.33816E-001	  3.42682E-001
  1.50000E-004	  3.28779E-001	  3.25204E-001	  3.36734E-001	  3.51133E-001
  1.62500E-004	  3.25391E-001	  3.26825E-001	  3.34008E-001	  3.63231E-001
  1.75000E-004	  3.26721E-001	  3.26160E-001	  3.20137E-001	  3.44921E-001
  1.87500E-004	  3.32789E-001	  3.30607E-001	  3.31042E-001	  3.50555E-001
  2.00000E-004	  3.29620E-001	  3.34078E-001	  3.24824E-001	  3.46889E-001
  2.25000E-004	  3.31200E-001	  3.33537E-001	  3.17387E-001	  3.42808E-001
  2.50000E-004	  3.21661E-001	  3.27386E-001	  3.33457E-001	  3.43332E-001
  2.75000E-004	  3.20923E-001	  3.22835E-001	  3.32740E-001	  3.49345E-001
  3.00000E-004	  3.27563E-001	  3.32374E-001	  3.16909E-001	  3.33400E-001
  3.25000E-004	  3.22046E-001	  3.24851E-001	  3.26403E-001	  3.39359E-001
  3.50000E-004	  3.20872E-001	  3.21090E-001	  3.23676E-001	  3.35151E-001
  3.75000E-004	  3.25111E-001	  3.25246E-001	  3.24226E-001	  3.39810E-001
  4.00000E-004	  3.24150E-001	  3.20736E-001	  3.19049E-001	  3.41715E-001
  4.50000E-004	  3.23822E-001	  3.19884E-001	  3.25231E-001	  3.32957E-001
  5.00000E-004	  3.24051E-001	  3.25952E-001	  3.25446E-001	  3.32009E-001
  5.50000E-004	  3.27324E-001	  3.27594E-001	  3.26534E-001	  3.32398E-001
  6.00000E-004	  3.20981E-001	  3.18866E-001	  3.18009E-001	  3.37842E-001
  6.50000E-004	  3.21968E-001	  3.27189E-001	  3.26140E-001	  3.36244E-001
  7.00000E-004	  3.19583E-001	  3.20851E-001	  3.32417E-001	  3.41752E-001
  7.50000E-004	  3.25932E-001	  3.31387E-001	  3.26785E-001	  3.33662E-001
  8.00000E-004	  3.24274E-001	  3.24570E-001	  3.21685E-001	  3.35829E-001
  9.00000E-004	  3.21453E-001	  3.24430E-001	  3.27628E-001	  3.30343E-001
  1.00000E-003	  3.23778E-001	  3.27324E-001	  3.22355E-001	  3.28208E-001
  1.10000E-003	  3.20661E-001	  3.20705E-001	  3.16693E-001	  3.32063E-001
  1.20000E-003	  3.19256E-001	  3.15536E-001	  3.19372E-001	  3.30650E-001
  1.30000E-003	  3.22399E-001	  3.18310E-001	  3.20005E-001	  3.28479E-001
  1.40000E-003	  3.19113E-001	  3.18606E-001	  3.20663E-001	  3.29359E-001
  1.50000E-003	  3.18783E-001	  3.19469E-001	  3.23395E-001	  3.29459E-001
  1.60000E-003	  3.18230E-001	  3.17689E-001	  3.21330E-001	  3.27129E-001
  1.80000E-003	  3.20921E-001	  3.20487E-001	  3.20005E-001	  3.29921E-001
  2.00000E-003	  3.19151E-001	  3.20045E-001	  3.18030E-001	  3.26682E-001
  2.20000E-003	  3.18202E-001	  3.18996E-001	  3.16158E-001	  3.24842E-001
  2.40000E-003	  3.17506E-001	  3.17643E-001	  3.19441E-001	  3.24815E-001
  2.60000E-003	  3.16689E-001	  3.16653E-001	  3.21638E-001	  3.24718E-001
  2.80000E-003	  3.16969E-001	  3.16840E-001	  3.17184E-001	  3.22493E-001
  3.00000E-003	  3.14793E-001	  3.15461E-001	  3.22325E-001	  3.22005E-001
  3.20000E-003	  3.16954E-001	  3.17665E-001	  3.16240E-001	  3.21677E-001
  3.60000E-003	  3.13842E-001	  3.13403E-001	  3.15359E-001	  3.21937E-001
  4.00000E-003	  3.12833E-001	  3.13219E-001	  3.12565E-001	  3.19063E-001
  4.40000E-003	  3.09838E-001	  3.09655E-001	  3.13525E-001	  3.18008E-001
  4.80000E-003	  3.09496E-001	  3.08338E-001	  3.12141E-001	  3.14605E-001
  5.20000E-003	  3.08446E-001	  3.08033E-001	  3.11274E-001	  3.15351E-001
  5.60000E-003	  3.06680E-001	  3.06203E-001	  3.10784E-001	  3.14284E-001
  6.00000E-003	  3.05270E-001	  3.04709E-001	  3.09000E-001	  3.12613E-001
  6.40000E-003	  3.04718E-001	  3.04887E-001	  3.07900E-001	  3.10588E-001
  7.20000E-003	  3.02565E-001	  3.02280E-001	  3.04999E-001	  3.08454E-001
  8.00000E-003	  3.01193E-001	  3.00973E-001	  3.02760E-001	  3.05488E-001
  8.80000E-003	  2.97607E-001	  2.96992E-001	  3.01069E-001	  3.01849E-001
  9.60000E-003	  2.95457E-001	  2.96488E-001	  3.00369E-001	  3.01397E-001
  1.04000E-002	  2.92947E-001	  2.93791E-001	  2.97692E-001	  2.97208E-001
  1.12000E-002	  2.90602E-001	  2.91074E-001	  2.94462E-001	  2.95153E-001
  1.20000E-002	  2.89158E-001	  2.88999E-001	  2.90397E-001	  2.93067E-001
  1.28000E-002	  2.86664E-001	  2.86628E-001	  2.89007E-001	  2.91668E-001
  1.44000E-002	  2.82259E-001	  2.82055E-001	  2.85292E-001	  2.87690E-001
  1.60000E-002	  2.78238E-001	  2.78701E-001	  2.81708E-001	  2.83062E-001
  1.76000E-002	  2.74228E-001	  2.73821E-001	  2.77090E-001	  2.80715E-001
  1.92000E-002	  2.69336E-001	  2.69922E-001	  2.73461E-001	  2.75177E-001
  2.08000E-002	  2.65887E-001	  2.65840E-001	  2.69638E-001	  2.71129E-001
  2.24000E-002	  2.62264E-001	  2.62819E-001	  2.65825E-001	  2.67084E-001
  2.40000E-002	  2.58492E-001	  2.58028E-001	  2.62852E-001	  2.63717E-001
  2.56000E-002	  2.55204E-001	  2.55079E-001	  2.58325E-001	  2.59395E-001
  2.88000E-002	  2.47782E-001	  2.48172E-001	  2.50540E-001	  2.52881E-001
  3.20000E-002	  2.41256E-001	  2.41166E-001	  2.44012E-001	  2.44779E-001
  3.52000E-002	  2.34002E-001	  2.34301E-001	  2.37425E-001	  2.38457E-001
  3.84000E-002	  2.27612E-001	  2.28005E-001	  2.30518E-001	  2.31959E-001
  4.16000E-002	  2.20916E-001	  2.20924E-001	  2.23834E-001	  2.25296E-001
  4.48000E-002	  2.15256E-001	  2.15302E-001	  2.17765E-001	  2.18677E-001
  4.80000E-002	  2.09277E-001	  2.09566E-001	  2.11387E-001	  2.13578E-001
  5.12000E-002	  2.03618E-001	  2.03684E-001	  2.05553E-001	  2.08139E-001
  5.76000E-002	  1.92745E-001	  1.92801E-001	  1.95254E-001	  1.96526E-001
  6.40000E-002	  1.82418E-001	  1.82575E-001	  1.84196E-001	  1.85947E-001
  7.04000E-002	  1.72706E-001	  1.72921E-001	  1.74552E-001	  1.76858E-001
  7.68000E-002	  1.63658E-001	  1.63599E-001	  1.65697E-001	  1.67127E-001
  8.32000E-002	  1.55050E-001	  1.55609E-001	  1.56920E-001	  1.58221E-001
  8.96000E-002	  1.46770E-001	  1.46683E-001	  1.48385E-001	  1.49526E-001
  9.60000E-002	  1.39267E-001	  1.39608E-001	  1.41278E-001	  1.42306E-001
  1.02400E-001	  1.32161E-001	  1.32247E-001	  1.33960E-001	  1.34752E-001
  1.15200E-001	  1.18546E-001	  1.18549E-001	  1.20242E-001	  1.20849E-001
  1.28000E-001	  1.06882E-001	  1.07217E-001	  1.08371E-001	  1.08936E-001
  1.40800E-001	  9.63836E-002	  9.66385E-002	  9.77126E-002	  9.79237E-002
  1.53600E-001	  8.74083E-002	  8.76054E-002	  8.79387E-002	  8.87028E-002
  1.66400E-001	  7.83568E-002	  7.86339E-002	  7.97628E-002	  7.99711E-002
  1.79200E-001	  7.10188E-002	  7.11955E-002	  7.18672E-002	  7.21437E-002
  1.92000E-001	  6.41511E-002	  6.41791E-002	  6.49221E-002	  6.54806E-002
  2.04800E-001	  5.83191E-002	  5.83143E-002	  5.91434E-002	  5.92077E-002
  2.30400E-001	  4.78307E-002	  4.78962E-002	  4.87793E-002	  4.87758E-002
  2.56000E-001	  3.98581E-002	  3.98395E-002	  4.01418E-002	  4.01314E-002
  2.81600E-001	  3.29961E-002	  3.31023E-002	  3.34645E-002	  3.35859E-002
  3.07200E-001	  2.74683E-002	  2.75988E-002	  2.76894E-002	  2.77168E-002
  3.32800E-001	  2.29647E-002	  2.29733E-002	  2.28963E-002	  2.34464E-002
  3.58400E-001	  1.95087E-002	  1.93904E-002	  1.94025E-002	  1.96390E-002
  3.84000E-001	  1.62113E-002	  1.62723E-002	  1.57185E-002	  1.65833E-002
  4.09600E-001	  1.36018E-002	  1.36518E-002	  1.33858E-002	  1.40575E-002
  4.60800E-001	  9.99871E-003	  9.89337E-003	  9.84378E-003	  1.04495E-002
  5.12000E-001	  7.41722E-003	  7.24948E-003	  7.42121E-003	  7.76653E-003
  5.63200E-001	  5.52939E-003	  5.39085E-003	  5.18829E-003	  5.57282E-003
  6.14400E-001	  3.87130E-003	  3.50378E-003	  3.61092E-003	  3.92098E-003
  6.65600E-001	  2.71815E-003	  2.44806E-003	  3.12280E-003	  2.55465E-003
  7.16800E-001	  2.32700E-003	  2.17473E-003	  2.59700E-003	  2.10748E-003
  7.68000E-001	  1.78153E-003	  1.57275E-003	  1.89308E-003	  1.69517E-003
  8.19200E-001	  1.24942E-003	  9.93626E-004	  1.36483E-003	  1.21019E-003
  9.21600E-001	  8.29735E-004	  7.30216E-004	  9.32518E-004	  5.22131E-004
  1.02400E+000	  2.94779E-004	  3.92674E-005	  3.50520E-004	  2.93409E-004
  1.12640E+000	  2.14956E-004	  5.13027E-005	  2.79009E-004	  2.18438E-004
  1.22880E+000	  3.69780E-005	  1.23862E-004	  6.79950E-005	  3.32985E-006
  1.33120E+000	  1.32072E-004	  2.26919E-004	  1.05131E-004	 -5.72233E-005
  1.43360E+000	 -1.91318E-004	  1.49035E-004	 -1.82881E-004	 -6.30863E-005
  1.53600E+000	 -4.61837E-005	  5.91138E-005	 -1.23601E-007	  1.24169E-004
  1.63840E+000	  1.21889E-005	 -1.01551E-005	  9.25183E-006	 -1.32531E-006
  1.84320E+000	  4.51282E-004	  3.32004E-004	  4.90469E-004	  4.23396E-004
  2.04800E+000	  2.39717E-004	  6.97217E-005	  4.85239E-004	 -9.56570E-005
  2.25280E+000	  1.94763E-004	  2.65622E-004	  2.70655E-004	  4.97384E-005
  2.45760E+000	  3.73042E-004	  3.56379E-004	  1.23051E-004	  3.77985E-004
  2.66240E+000	  2.21735E-004	  1.99701E-004	  5.41956E-005	  2.95401E-004
  2.86720E+000	  1.45727E-004	  3.21951E-004	  1.80706E-004	  8.99421E-005
  3.07200E+000	  8.16436E-004	  9.62092E-004	  7.08242E-004	  9.57941E-004
  3.27680E+000	  7.21106E-004	  7.69081E-004	  7.55547E-004	  8.00068E-004
  3.68640E+000	  1.23635E-003	  1.18018E-003	  1.03245E-003	  1.30006E-003
  4.09600E+000	  4.04837E-004	  4.44999E-004	  1.19963E-004	  5.32440E-004
  4.50560E+000	  6.60896E-004	  5.68073E-004	  6.24239E-004	  5.93859E-004
  4.91520E+000	  3.43053E-004	  2.92103E-004	  6.37825E-004	  3.49255E-005
  5.32480E+000	  2.91614E-004	  1.51970E-004	  7.43386E-004	 -1.06357E-004
  5.73440E+000	  1.52030E-004	  8.40131E-005	  2.37357E-004	  1.24533E-004
  6.14400E+000	  1.85107E-004	  9.06684E-005	  4.08968E-004	  8.67849E-005
  6.55360E+000	 -3.38337E-004	 -2.96277E-004	 -1.85807E-004	 -4.46625E-004
  7.37280E+000	  1.27782E-004	  1.13246E-004	 -4.89314E-005	  2.66801E-004
  8.19200E+000	 -7.75806E-006	  1.47005E-004	 -1.71864E-004	  1.42334E-004
  9.01120E+000	 -8.05992E-005	 -8.39539E-005	 -2.43863E-004	  7.75220E-005
  9.83040E+000	 -3.27310E-004	 -2.98022E-004	 -3.88335E-004	 -3.15354E-004
  1.06496E+001	  8.73219E-004	  7.38346E-004	  8.36004E-004	  8.95851E-004
  1.14688E+001	  6.06244E-004	  6.10342E-004	  7.46598E-004	  4.47778E-004
  1.22880E+001	  2.16179E-004	  2.01587E-004	  3.11359E-004	  1.69475E-004
  1.31072E+001	  3.77509E-006	 -1.71994E-005	  7.83035E-006	 -2.08025E-005
  1.47456E+001	  3.20758E-004	  3.55305E-004	  3.20785E-004	  2.52444E-004
  1.63840E+001	  2.00443E-005	  1.03204E-004	  1.64748E-004	 -1.21764E-004
  1.80224E+001	  2.22984E-004	  2.42832E-004	  2.10336E-004	  1.69304E-004
  1.96608E+001	  6.54620E-005	  9.66548E-005	  3.51236E-005	  1.19501E-004
  2.12992E+001	 -2.25772E-004	 -3.46316E-004	 -1.92440E-004	 -3.02272E-004
  2.29376E+001	  1.95591E-004	  2.13403E-004	  9.48663E-005	  2.69503E-004
  2.45760E+001	 -5.11017E-005	 -8.49392E-005	 -1.57886E-004	  3.69719E-005
  2.62144E+001	 -3.32583E-004	 -4.35979E-004	 -3.86198E-004	 -2.50901E-004
  2.94912E+001	 -2.64374E-004	 -3.09909E-004	 -3.61737E-004	 -2.08123E-004
  3.27680E+001	 -9.25931E-005	 -1.05343E-004	 -2.36959E-004	  5.44792E-005
  3.60448E+001	 -8.43914E-005	 -2.04113E-005	 -4.62245E-005	 -7.77646E-005
  3.93216E+001	 -2.03895E-004	 -2.31005E-004	 -1.53309E-004	 -2.68154E-004
  4.25984E+001	 -3.05012E-004	 -3.70537E-004	 -3.36726E-004	 -2.30296E-004
  4.58752E+001	  5.17011E-005	  1.81707E-005	 -6.13139E-006	  2.82457E-005
  4.91520E+001	 -7.53168E-005	 -2.44602E-005	 -1.68880E-004	  5.01080E-005
  5.24288E+001	 -1.94605E-005	  3.00325E-005	 -4.04249E-005	  1.43898E-005
  5.89824E+001	  1.20852E-004	  9.43434E-005	  1.51288E-004	  6.91633E-005
  6.55360E+001	  5.22674E-005	 -5.46814E-006	  9.30503E-006	  1.01698E-004
  7.20896E+001	 -1.35320E-005	 -5.58219E-006	 -3.60025E-005	 -4.12507E-005
  7.86432E+001	 -9.29949E-005	 -8.60435E-005	 -1.48711E-004	 -7.43191E-005
  8.51968E+001	  1.09536E-004	  1.48862E-004	  5.93738E-005	  1.40882E-004
  9.17504E+001	 -2.65008E-004	 -3.30241E-004	 -3.03252E-004	 -2.48306E-004
  9.83040E+001	 -9.89716E-006	  2.06367E-005	 -3.38225E-006	  2.81305E-005
  1.04858E+002	  2.93377E-005	  3.89166E-005	  1.48744E-005	  7.13125E-005
  1.17965E+002	  8.51473E-005	  1.07353E-004	  5.33213E-005	  1.07067E-004
  1.31072E+002	 -3.75382E-005	 -1.87385E-005	  2.39434E-006	 -9.00356E-005
  1.44179E+002	  6.99460E-005	  5.29684E-005	  8.97401E-005	  8.03758E-005
  1.57286E+002	 -6.47380E-005	 -5.91035E-005	 -4.24829E-005	 -9.63376E-005
  1.70394E+002	  7.56429E-005	  3.26610E-005	  6.30237E-005	  9.20875E-005
  1.83501E+002	  2.22038E-005	  4.63235E-005	  5.93352E-005	 -6.19454E-006
  1.96608E+002	 -7.35289E-005	 -5.02658E-005	 -8.11314E-005	 -6.57321E-005
  2.09715E+002	 -1.05109E-004	 -8.57907E-005	 -1.19517E-004	 -8.94413E-005
  2.35930E+002	 -3.15108E-005	 -2.46762E-005	 -7.20622E-005	 -2.76016E-006
  2.62144E+002	  3.23138E-005	  4.49056E-005	 -7.59970E-007	  5.47689E-005
  2.88358E+002	 -5.77917E-005	 -4.99403E-005	 -6.78457E-005	 -4.93064E-005
  3.14573E+002	  2.20876E-005	  2.54426E-005	  5.65405E-005	  1.07561E-005
  3.40787E+002	 -1.92252E-006	  1.62182E-006	 -3.60990E-005	  3.18606E-005
  3.67002E+002	  4.75460E-005	  3.66889E-005	  9.32483E-006	  8.50576E-005
  3.93216E+002	 -1.47201E-005	 -2.41068E-005	 -1.08032E-005	 -1.81119E-005
  4.19430E+002	 -7.73562E-005	 -9.40623E-005	 -8.30784E-005	 -8.09134E-005
  4.71859E+002	  6.85310E-005	  6.33320E-005	  8.89377E-005	  4.55637E-005
  5.24288E+002	 -1.29827E-005	 -8.99839E-006	 -1.93414E-005	 -6.06400E-006
  5.76717E+002	 -1.35975E-005	 -6.94715E-006	 -2.59384E-005	  6.48404E-006
  6.29146E+002	 -3.32045E-005	 -2.00708E-005	 -4.00821E-005	 -3.16366E-005
  6.81574E+002	 -3.08819E-005	 -4.45263E-005	 -2.97442E-005	 -3.03146E-005
  7.34003E+002	 -3.92655E-006	 -2.04608E-005	  1.26927E-005	 -1.65672E-005
  7.86432E+002	 -9.91664E-005	 -1.15033E-004	 -7.77853E-005	 -1.28806E-004
  8.38861E+002	  3.51151E-006	  2.66653E-007	  1.47051E-005	 -6.51439E-006
  9.43718E+002	  2.85737E-005	  4.23771E-005	  1.95818E-005	  3.29275E-005
  1.04858E+003	  1.97953E-005	  7.52989E-006	  2.50099E-005	  1.48114E-005
  1.15343E+003	 -9.47065E-006	 -6.56402E-006	 -9.03971E-006	 -6.13683E-006
  1.25829E+003	  6.33759E-006	  3.39134E-005	  5.75870E-006	  5.69730E-006
  1.36315E+003	 -9.16377E-006	 -2.24644E-005	 -3.30337E-007	 -1.27668E-005
  1.46801E+003	 -9.24551E-005	 -9.30809E-005	 -7.83324E-005	 -1.13137E-004
  1.57286E+003	 -3.79792E-005	 -3.80144E-005	 -2.88676E-005	 -3.88919E-005
  1.67772E+003	 -1.13038E-005	 -1.60367E-005	 -1.13152E-005	 -1.36393E-005
  1.88744E+003	  3.73887E-006	 -2.00846E-006	  4.37306E-006	  5.19309E-006
  2.09715E+003	  1.40433E-005	  1.59032E-005	  1.48091E-005	  9.69716E-006
  2.30687E+003	  8.89298E-006	 -1.39710E-006	  8.74320E-006	  1.54478E-005
  2.51658E+003	 -5.21497E-005	 -5.10114E-005	 -6.17986E-005	 -4.03329E-005
  2.72630E+003	 -5.34111E-006	 -4.60477E-006	 -6.61074E-006	 -6.52424E-006
  2.93601E+003	 -4.15418E-006	 -8.89487E-006	 -4.13732E-006	 -1.56195E-006
  3.14573E+003	  3.79502E-005	  4.67266E-005	  4.02402E-005	  3.48146E-005
  3.35544E+003	  1.47374E-005	  2.04016E-005	  1.20736E-005	  1.27885E-005
  3.77487E+003	 -1.98444E-005	 -1.85659E-005	 -2.08877E-005	 -1.51629E-005
  4.19430E+003	  1.23101E-006	 -8.56699E-006	  8.10259E-007	 -6.73824E-006
  4.61373E+003	 -1.44128E-005	 -2.57597E-005	 -1.52109E-005	 -1.29410E-005
  5.03317E+003	  6.30602E-006	 -5.72438E-007	  3.59462E-006	  1.04649E-005
  5.45260E+003	  8.08625E-007	 -3.38329E-006	 -2.01653E-006	  5.15642E-006
  5.87203E+003	 -7.74836E-006	 -1.98911E-006	 -1.15783E-005	 -6.02066E-006
  6.29146E+003	 -3.09213E-006	 -4.39525E-006	 -5.66608E-007	 -4.76661E-006
  6.71089E+003	 -3.25828E-005	 -3.41960E-005	 -2.81271E-005	 -3.64938E-005
  7.54975E+003	  1.23587E-005	  1.26770E-005	  1.66377E-005	  6.96534E-006
  8.38861E+003	  1.21335E-005	  1.62371E-005	  1.91301E-005	  3.54652E-006
  9.22747E+003	  8.28391E-006	  1.03180E-005	  1.37093E-005	  5.27760E-006
  1.00663E+004	 -5.33902E-006	 -8.67046E-006	 -5.19917E-006	 -5.87162E-006
  1.09052E+004	  8.17954E-006	  1.22171E-005	  6.74010E-006	  8.81781E-006
  1.17441E+004	 -3.39512E-006	 -5.03459E-006	 -8.75373E-006	  3.88879E-006

"Count Rate"
       0.27344	     155.42371	     178.26746	     155.42371	     178.26746
       0.54688	     156.42184	     178.69156	     156.42184	     178.69156
       0.82031	     157.06534	     182.82669	     157.06534	     182.82669
       1.09375	     156.82037	     180.69881	     156.82037	     180.69881
       1.36719	     159.57712	     181.43735	     159.57712	     181.43735
       1.64063	     155.13123	     178.66597	     155.13123	     178.66597
       1.91406	     152.46222	     175.86169	     152.46222	     175.86169
       2.18750	     153.90274	     175.74469	     153.90274	     175.74469
       2.46094	     152.18069	     176.47958	     152.18069	     176.47958
       2.73438	     158.21703	     181.72984	     158.21703	     181.72984
       3.00781	     151.07288	     172.73201	     151.07288	     172.73201
       3.28125	     157.02145	     180.59277	     157.02145	     180.59277
       3.55469	     152.84976	     175.57286	     152.84976	     175.57286
       3.82813	     150.25023	     174.42116	     150.25023	     174.42116
       4.10156	     158.91170	     181.21066	     158.91170	     181.21432
       4.37500	     156.15860	     181.43369	     156.15860	     181.43369
       4.64844	     153.80037	     178.72081	     153.80037	     178.72081
       4.92188	     158.44005	     180.79021	     158.44005	     180.79021
       5.19531	     156.62294	     180.80482	     156.62294	     180.80482
       5.46875	     153.65778	     176.66605	     153.65778	     176.66605
       5.74219	     155.76373	     180.14307	     155.76373	     180.14307
       6.01563	     155.55899	     178.41003	     155.55899	     178.41003
       6.28906	     151.76755	     174.29686	     151.76755	     174.29686
       6.56250	     155.95752	     177.37169	     155.95752	     177.37169
       6.83594	     154.70345	     179.29118	     154.70345	     179.29118
       7.10938	     156.21710	     178.72081	     156.21710	     178.72081
       7.38281	     150.87544	     173.22560	     150.87544	     173.22560
       7.65625	     151.73099	     174.70268	     151.73099	     174.70268
       7.92969	     157.04340	     178.49779	     157.04340	     178.49779
       8.20313	     152.90826	     175.97868	     152.90826	     175.97868
       8.47656	     155.24821	     179.28386	     155.24821	     179.28386
       8.75000	     155.94655	     177.74461	     155.94655	     177.74461
       9.02344	     157.09093	     181.13023	     157.09093	     181.13023
       9.29688	     156.49496	     181.00592	     156.49496	     181.00592
       9.57031	     154.90088	     176.55637	     154.90088	     176.55637
       9.84375	     152.64137	     175.27306	     152.64137	     175.27306
      10.11719	     153.20807	     176.36624	     153.20807	     176.36624
      10.39063	     152.30135	     172.58577	     152.30135	     172.58577
      10.66406	     155.92827	     179.15590	     155.92827	     179.15590
      10.93750	     154.60838	     178.23820	     154.60838	     178.23820
      11.21094	     157.89528	     181.21066	     157.89528	     181.21066
      11.48438	     154.71808	     180.08092	     154.71808	     180.08092
      11.75781	     152.07100	     175.24014	     152.07100	     175.24014
      12.03125	     157.97206	     181.41541	     157.97206	     181.41541
      12.30469	     151.99423	     174.54913	     151.99423	     174.54913
      12.57813	     155.19704	     179.47398	     155.19704	     179.47398
      12.85156	     155.93922	     181.01689	     155.93922	     181.01689
      13.12500	     152.76567	     175.73738	     152.76567	     175.73738
      13.39844	     154.46579	     178.69888	     154.46579	     178.69888
      13.67188	     154.70345	     179.54710	     154.70345	     179.54710
      13.94531	     153.53348	     178.89996	     153.53348	     178.89996
      14.21875	     152.21725	     177.86893	     152.21725	     177.86893
      14.49219	     156.31947	     179.09009	     156.31947	     179.09009
      14.76563	     152.64502	     178.17604	     152.64502	     178.17604
      15.03906	     152.41103	     174.24933	     152.41103	     174.24933
      15.31250	     152.32693	     176.41743	     152.32693	     176.41743
      15.58594	     151.53355	     172.55652	     151.53355	     172.55652
      15.85938	     156.12204	     178.96577	     156.12204	     178.96577
      16.13281	     156.88252	     179.03891	     156.88252	     179.03891
      16.40625	     150.62682	     174.72829	     150.62682	     174.72829
      16.67969	     156.88252	     179.38625	     156.88252	     179.38625
      16.95313	     156.71068	     179.62755	     156.71068	     179.62755
      17.22656	     159.28098	     179.87251	     159.28098	     179.87251
      17.50000	     155.76740	     180.05898	     155.76740	     180.05898
      17.77344	     155.36522	     179.71529	     155.36522	     179.71529
      18.04688	     156.64487	     179.14128	     156.64487	     179.14128
      18.32031	     155.75276	     180.21619	     155.75276	     180.21619
      18.59375	     158.10368	     182.02965	     158.10368	     182.02965
      18.86719	     153.01796	     176.54173	     153.01796	     176.54173
      19.14063	     156.97392	     180.66956	     156.97392	     180.66956
      19.41406	     156.31581	     179.59099	     156.31581	     179.59099
      19.68750	     155.03616	     178.84148	     155.03616	     178.84148
      19.96094	     153.97221	     176.42841	     153.97221	     176.42841
      20.23438	     154.92647	     177.76289	     154.92647	     177.76289
      20.50781	     155.44565	     179.29483	     155.44565	     179.29483
      20.78125	     152.65234	     176.75014	     152.65234	     176.75014
      21.05469	     150.49886	     172.54555	     150.49886	     172.54555
      21.32813	     153.78940	     177.02069	     153.78940	     177.02069
      21.60156	     151.41289	     173.64240	     151.41289	     173.64240
      21.87500	     153.50423	     174.89647	     153.50423	     174.89647
      22.14844	     153.19345	     175.70813	     153.19345	     175.70813
      22.42188	     153.35432	     176.16150	     153.35432	     176.16150
      22.69531	     156.47668	     180.84871	     156.47668	     180.84871
      22.96875	     154.51332	     179.17784	     154.51332	     179.17784
      23.24219	     153.71628	     179.11568	     153.71628	     179.11568
      23.51563	     158.96288	     183.79924	     158.96288	     183.79924
      23.78906	     154.04169	     177.79581	     154.04169	     177.79581
      24.06250	     153.76016	     177.74461	     153.76016	     177.74461
      24.33594	     154.62666	     176.99876	     154.62666	     176.99876
      24.60938	     156.86058	     180.24544	     156.86058	     180.24544
      24.88281	     152.51340	     176.20172	     152.51340	     176.20172
      25.15625	     153.80037	     176.38818	     153.80037	     176.38818
      25.42969	     157.45288	     181.27647	     157.45288	     181.27647
      25.70313	     153.69435	     179.21074	     153.69435	     179.21074
      25.97656	     158.47661	     183.04240	     158.47661	     183.04240
      26.25000	     158.78738	     182.46838	     158.78738	     182.46838
      26.52344	     157.82216	     181.04979	     157.82216	     181.04979
      26.79688	     155.26285	     177.38266	     155.26285	     177.38266
      27.07031	     150.55736	     173.92758	     150.55736	     173.92758
      27.34375	     152.93752	     176.46497	     152.93752	     176.46497
      27.61719	     157.07265	     178.41736	     157.07265	     178.41736
      27.89063	     154.08189	     176.49786	     154.08189	     176.49786
      28.16406	     154.89357	     180.66225	     154.89357	     180.66225
      28.43750	     153.25560	     176.13225	     153.25560	     176.13225
      28.71094	     157.59914	     181.10829	     157.59914	     181.10829
      28.98438	     153.78209	     177.66418	     153.78209	     177.66418
      29.25781	     153.34335	     176.02988	     153.34335	     176.02988
      29.53125	     153.49326	     176.95854	     153.49326	     176.95854
      29.80469	     159.39432	     183.94182	     159.39432	     183.94182
      30.07813	     158.74352	     181.79565	     158.74352	     181.79565
      30.35156	     153.14958	     176.00429	     153.14958	     176.00429
      30.62500	     150.60854	     173.38281	     150.60854	     173.38281
      30.89844	     154.22815	     178.88168	     154.22815	     178.88168
      31.17188	     159.87692	     184.74983	     159.87692	     184.74983
      31.44531	     153.18248	     173.63875	     153.18248	     173.63875
      31.71875	     150.22830	     171.85454	     150.22830	     171.85454
      31.99219	     153.20442	     178.57823	     153.20442	     178.57823
      32.26563	     156.44379	     179.54346	     156.44379	     179.54346
      32.53906	     150.46594	     172.97697	     150.46594	     172.97697
      32.81250	     156.48035	     179.78110	     156.48035	     179.78110
      33.08594	     153.46767	     175.57651	     153.46767	     175.57651
      33.35938	     155.60652	     180.24910	     155.60652	     180.24910
      33.63281	     152.70352	     177.36438	     152.70352	     177.36438
      33.90625	     154.14040	     177.51793	     154.14040	     177.51793
      34.17969	     156.64122	     181.04979	     156.64122	     181.04979
      34.45313	     162.75798	     185.46278	     162.75798	     185.46278
      34.72656	     150.23926	     174.56375	     150.23926	     174.56375
      35.00000	     157.58086	     180.44287	     157.58086	     180.44287
      35.27344	     156.90811	     180.72073	     156.90811	     180.72073
      35.54688	     153.38358	     176.39183	     153.38358	     176.39183
      35.82031	     153.11667	     173.95317	     153.11667	     173.95317
      36.09375	     163.38319	     185.88326	     163.38319	     185.88326
      36.36719	     155.52608	     176.58926	     155.52608	     176.58926
      36.64063	     152.38177	     175.22186	     152.38177	     175.22186
      36.91406	     157.73441	     181.45198	     157.73441	     181.45198
      37.18750	     155.76009	     177.98958	     155.76009	     177.98958
      37.46094	     149.39468	     171.28416	     149.39468	     171.28416
      37.73438	     156.90080	     181.85416	     156.90080	     181.85416
      38.00781	     155.19704	     176.98779	     155.19704	     176.98779
      38.28125	     154.20621	     177.02802	     154.20621	     177.02802
      38.55469	     155.13123	     177.33879	     155.13123	     177.33879
      38.82813	     152.76933	     175.21455	     152.76933	     175.21455
      39.10156	     157.05437	     179.18515	     157.05437	     179.18515
      39.37500	     160.36685	     182.89250	     160.36685	     182.89250
      39.64844	     155.15315	     179.02061	     155.15315	     179.02061
      39.92188	     153.50787	     178.30766	     153.50787	     178.30766
      40.19531	     157.34320	     182.87788	     157.34320	     182.87788
      40.46875	     148.49893	     168.79431	     148.49893	     168.79431
      40.74219	     147.91760	     170.39938	     147.91760	     170.39938
      41.01563	     150.00893	     169.50362	     150.00893	     169.50362
      41.28906	     155.80396	     179.74454	     155.80396	     179.74454
      41.56250	     147.58124	     171.06114	     147.58124	     171.06114
      41.83594	     152.98505	     177.28029	     152.98505	     177.28029
      42.10938	     157.67592	     181.21066	     157.67592	     181.21066
      42.38281	     157.12749	     180.60739	     157.12749	     180.60739
      42.65625	     154.99594	     176.33334	     154.99594	     176.33334
      42.92969	     153.87349	     177.18156	     153.87349	     177.18156
      43.20313	     155.74911	     179.07912	     155.74911	     179.07912
      43.47656	     154.53526	     178.87804	     154.53526	     178.87804
      43.75000	     151.47870	     172.44684	     151.47870	     172.44684
      44.02344	     157.66859	     180.67686	     157.66859	     180.67686
      44.29688	     157.36514	     179.38625	     157.36514	     179.38625
      44.57031	     151.92842	     172.50533	     151.92842	     172.50533
      44.84375	     155.69427	     180.09187	     155.69427	     180.09187
      45.11719	     157.95744	     183.15941	     157.95744	     183.15941
      45.39063	     152.02713	     176.38818	     152.02713	     176.38818
      45.66406	     153.20807	     176.28215	     153.20807	     176.28215
      45.93750	     153.88812	     177.02435	     153.88812	     177.02435
      46.21094	     155.17874	     179.55443	     155.17874	     179.55443
      46.48438	     154.39998	     178.76469	     154.39998	     178.76469
      46.75781	     153.84790	     177.26566	     153.84790	     177.26566
      47.03125	     157.02512	     181.26186	     157.02512	     181.26186
      47.30469	     154.95572	     179.02428	     154.95572	     179.02428
      47.57813	     160.03780	     184.67307	     160.03780	     184.67307
      47.85156	     158.69598	     183.53600	     158.69598	     183.53600
      48.12500	     153.60294	     177.11942	     153.60294	     177.11942
      48.39844	     151.50795	     173.83252	     151.50795	     173.83252
      48.67188	     156.37431	     180.90721	     156.37431	     180.90721
      48.94531	     152.39275	     175.99696	     152.39275	     175.99696
      49.21875	     154.48407	     177.68977	     154.48407	     177.68977
      49.49219	     153.24829	     174.60762	     153.24829	     174.60762
      49.76563	     158.52414	     182.86691	     158.52414	     182.86691
      50.03906	     154.09286	     176.84155	     154.09286	     176.84155
      50.31250	     156.18785	     181.59456	     156.18785	     181.59456
      50.58594	     155.06541	     179.10471	     155.06541	     179.10471
      50.85938	     154.25740	     176.24193	     154.25740	     176.24193
      51.13281	     155.73448	     181.13388	     155.73448	     181.13388
      51.40625	     152.94482	     175.63867	     152.94482	     175.63867
      51.67969	     156.23904	     179.18515	     156.23904	     179.18515
      51.95313	     153.57735	     175.77394	     153.57735	     175.77394
      52.22656	     153.02527	     175.26573	     153.02527	     175.26573
      52.50000	     152.83881	     176.35162	     152.83881	     176.35162
      52.77344	     152.85342	     174.74290	     152.85342	     174.74290
      53.04688	     153.88812	     178.01518	     153.88812	     178.01518
      53.32031	     153.09473	     176.07375	     153.09473	     176.07375
      53.59375	     153.04720	     177.53987	     153.04720	     177.53987
      53.86719	     156.29753	     179.19977	     156.29753	     179.19977
      54.14063	     150.61220	     174.50160	     150.61220	     174.50160
      54.41406	     154.11845	     175.89825	     154.11845	     175.89825
      54.68750	     149.94312	     171.90207	     149.94312	     171.90207
      54.96094	     155.35059	     178.62941	     155.35059	     178.62941
      55.23438	     161.03958	     183.29834	     161.03958	     183.29834
      55.50781	     154.28299	     177.04994	     154.28299	     177.04994
      55.78125	     150.77672	     174.22008	     150.77672	     174.22008
      56.05469	     151.47505	     173.48152	     151.47505	     173.48152
      56.32813	     150.72188	     175.51436	     150.72188	     175.51436
      56.60156	     156.05257	     179.43011	     156.05257	     179.43011
      56.87500	     156.96295	     179.64217	     156.96295	     179.64217
      57.14844	     154.66689	     178.88168	     154.66689	     178.88168
      57.42188	     158.65942	     183.49211	     158.65942	     183.49211
      57.69531	     152.09294	     174.76118	     152.09294	     174.76118
      57.96875	     149.63600	     171.32072	     149.63600	     171.32072
      58.24219	     155.77104	     178.47220	     155.77104	     178.47220
      58.51563	     155.83321	     179.61292	     155.83321	     179.61292
      58.78906	     157.48579	     182.46107	     157.48579	     182.46107
      59.06250	     149.05101	     171.47429	     149.05101	     171.47429
      59.33594	     152.49878	     175.17067	     152.49878	     175.17067
      59.60938	     155.98311	     179.55443	     155.98311	     179.55443
      59.88281	     154.07825	     180.61472	     154.07825	     180.61472
      60.15625	     149.96870	     173.01353	     149.96870	     173.01353
      60.42969	     153.82962	     176.83423	     153.82962	     176.83423
      60.70313	     155.75642	     180.08456	     155.75642	     180.08456
      60.97656	     156.27560	     178.70253	     156.27560	     178.70253
      61.25000	     150.59392	     173.94220	     150.59392	     173.94220
      61.52344	     161.12367	     183.42265	     161.12367	     183.42265
      61.79688	     151.55183	     175.85803	     151.55183	     175.85803
      62.07031	     154.48042	     179.05353	     154.48042	     179.05353
      62.34375	     153.73456	     179.38625	     153.73456	     179.38625
      62.61719	     160.43997	     183.78827	     160.43997	     183.78827
      62.89063	     154.86432	     177.69344	     154.86432	     177.69344
      63.16406	     153.52982	     176.94026	     153.52982	     176.94026
      63.43750	     154.92282	     178.20529	     154.92282	     178.20529
      63.71094	     151.58473	     174.01898	     151.58473	     174.01898
      63.98438	     154.73270	     177.77386	     154.73270	     177.77386
      64.25781	     153.80037	     177.85065	     153.80037	     177.85065
      64.53125	     156.72165	     180.57816	     156.72165	     180.57816
      64.80469	     153.83328	     178.68425	     153.83328	     178.68425
      65.07813	     156.73993	     181.25455	     156.73993	     181.25455
      65.35156	     150.93028	     171.85818	     150.93028	     171.85818
      65.62500	     155.09831	     179.18881	     155.09831	     179.18881
      65.89844	     156.46571	     182.02234	     156.46571	     182.02234
      66.17188	     157.92087	     182.05159	     157.92087	     182.05159
      66.44531	     155.86977	     181.80663	     155.86977	     181.80663
      66.71875	     153.82231	     176.53442	     153.82231	     176.53442
      66.99219	     153.77112	     176.85251	     153.77112	     176.85251
      67.26563	     150.63779	     173.22560	     150.63779	     173.22560
      67.53906	     155.98676	     179.78476	     155.98676	     179.78476
      67.81250	     158.87514	     183.04971	     158.87514	     183.04971
      68.08594	     156.45110	     180.57816	     156.45110	     180.57816
      68.35938	     154.84238	     178.51973	     154.84238	     178.51973
      68.63281	     152.41103	     173.28044	     152.41103	     173.28044
      68.90625	     155.44565	     178.72081	     155.44565	     178.72081
      69.17969	     151.46042	     176.19806	     151.46042	     176.19806
      69.45313	     156.33044	     179.06815	     156.33044	     179.06815

Monitor Diode	1633718.41
"StandardDeviation"
  3.12500E-006	  1.64145E-002
  6.25000E-006	  1.64147E-002
  9.37500E-006	  1.64143E-002
  1.25000E-005	  1.64145E-002
  1.56250E-005	  1.64145E-002
  1.87500E-005	  1.64146E-002
  2.18750E-005	  1.64145E-002
  2.50000E-005	  1.64145E-002
  2.81250E-005	  1.62733E-002
  3.12500E-005	  1.64145E-002
  3.43750E-005	  1.60728E-002
  3.75000E-005	  1.62331E-002
  4.06250E-005	  1.62322E-002
  4.37500E-005	  1.62896E-002
  4.68750E-005	  1.62669E-002
  5.00000E-005	  1.15094E-002
  5.62500E-005	  1.14161E-002
  6.25000E-005	  1.15092E-002
  6.87500E-005	  1.15163E-002
  7.50000E-005	  1.14655E-002
  8.12500E-005	  1.15044E-002
  8.75000E-005	  1.14634E-002
  9.37500E-005	  1.14809E-002
  1.00000E-004	  8.11947E-003
  1.12500E-004	  8.13399E-003
  1.25000E-004	  8.12004E-003
  1.37500E-004	  8.12123E-003
  1.50000E-004	  8.13576E-003
  1.62500E-004	  8.12540E-003
  1.75000E-004	  8.12942E-003
  1.87500E-004	  8.14786E-003
  2.00000E-004	  5.78277E-003
  2.25000E-004	  5.78613E-003
  2.50000E-004	  5.76580E-003
  2.75000E-004	  5.76429E-003
  3.00000E-004	  5.77832E-003
  3.25000E-004	  5.76657E-003
  3.50000E-004	  5.76401E-003
  3.75000E-004	  5.77320E-003
  4.00000E-004	  4.11987E-003
  4.50000E-004	  4.11929E-003
  5.00000E-004	  4.11970E-003
  5.50000E-004	  4.12449E-003
  6.00000E-004	  4.11498E-003
  6.50000E-004	  4.11655E-003
  7.00000E-004	  4.11289E-003
  7.50000E-004	  4.12235E-003
  8.00000E-004	  2.96786E-003
  9.00000E-004	  2.96504E-003
  1.00000E-003	  2.96737E-003
  1.10000E-003	  2.96411E-003
  1.20000E-003	  2.96263E-003
  1.30000E-003	  2.96584E-003
  1.40000E-003	  2.96245E-003
  1.50000E-003	  2.96201E-003
  1.60000E-003	  2.16914E-003
  1.80000E-003	  2.17081E-003
  2.00000E-003	  2.16950E-003
  2.20000E-003	  2.16867E-003
  2.40000E-003	  2.16815E-003
  2.60000E-003	  2.16750E-003
  2.80000E-003	  2.16758E-003
  3.00000E-003	  2.16597E-003
  3.20000E-003	  1.63302E-003
  3.60000E-003	  1.63130E-003
  4.00000E-003	  1.63071E-003
  4.40000E-003	  1.62902E-003
  4.80000E-003	  1.62865E-003
  5.20000E-003	  1.62794E-003
  5.60000E-003	  1.62691E-003
  6.00000E-003	  1.62610E-003
  6.40000E-003	  1.27908E-003
  7.20000E-003	  1.27773E-003
  8.00000E-003	  1.27679E-003
  8.80000E-003	  1.27526E-003
  9.60000E-003	  1.27401E-003
  1.04000E-002	  1.27281E-003
  1.12000E-002	  1.27160E-003
  1.20000E-002	  1.27062E-003
  1.28000E-002	  1.05598E-003
  1.44000E-002	  1.05345E-003
  1.60000E-002	  1.05151E-003
  1.76000E-002	  1.04945E-003
  1.92000E-002	  1.04726E-003
  2.08000E-002	  1.04527E-003
  2.24000E-002	  1.04331E-003
  2.40000E-002	  1.04128E-003
  2.56000E-002	  9.15070E-004
  2.88000E-002	  9.10336E-004
  3.20000E-002	  9.06391E-004
  3.52000E-002	  9.02448E-004
  3.84000E-002	  8.98581E-004
  4.16000E-002	  8.94630E-004
  4.48000E-002	  8.90664E-004
  4.80000E-002	  8.86720E-004
  5.12000E-002	  8.14070E-004
  5.76000E-002	  8.05052E-004
  6.40000E-002	  7.97315E-004
  7.04000E-002	  7.89651E-004
  7.68000E-002	  7.82139E-004
  8.32000E-002	  7.74490E-004
  8.96000E-002	  7.67115E-004
  9.60000E-002	  7.59828E-004
  1.02400E-001	  7.14589E-004
  1.15200E-001	  6.99287E-004
  1.28000E-001	  6.85990E-004
  1.40800E-001	  6.73145E-004
  1.53600E-001	  6.61157E-004
  1.66400E-001	  6.49721E-004
  1.79200E-001	  6.39598E-004
  1.92000E-001	  6.30516E-004
  2.04800E-001	  5.96189E-004
  2.30400E-001	  5.80975E-004
  2.56000E-001	  5.68727E-004
  2.81600E-001	  5.57904E-004
  3.07200E-001	  5.48430E-004
  3.32800E-001	  5.40539E-004
  3.58400E-001	  5.34201E-004
  3.84000E-001	  5.28511E-004
  4.09600E-001	  4.96969E-004
  4.60800E-001	  4.89504E-004
  5.12000E-001	  4.83936E-004
  5.63200E-001	  4.79979E-004
  6.14400E-001	  4.69478E-004
  6.65600E-001	  4.69478E-004
  7.16800E-001	  4.69478E-004
  7.68000E-001	  4.69478E-004
  8.19200E-001	  4.58790E-004
  9.21600E-001	  4.58790E-004
  1.02400E+000	  4.58790E-004
  1.12640E+000	  4.58790E-004
  1.22880E+000	  4.58790E-004
  1.33120E+000	  4.58790E-004
  1.43360E+000	  4.58790E-004
  1.53600E+000	  4.58790E-004
  1.63840E+000	  4.23112E-004
  1.84320E+000	  4.23112E-004
  2.04800E+000	  4.23112E-004
  2.25280E+000	  4.23112E-004
  2.45760E+000	  4.23112E-004
  2.66240E+000	  4.23112E-004
  2.86720E+000	  4.23112E-004
  3.07200E+000	  4.23112E-004
  3.27680E+000	  3.68879E-004
  3.68640E+000	  3.68879E-004
  4.09600E+000	  3.68879E-004
  4.50560E+000	  3.68879E-004
  4.91520E+000	  3.68879E-004
  5.32480E+000	  3.68879E-004
  5.73440E+000	  3.68879E-004
  6.14400E+000	  3.68879E-004
  6.55360E+000	  3.02333E-004
  7.37280E+000	  3.02333E-004
  8.19200E+000	  3.02333E-004
  9.01120E+000	  3.02333E-004
  9.83040E+000	  3.02333E-004
  1.06496E+001	  3.02333E-004
  1.14688E+001	  3.02333E-004
  1.22880E+001	  3.02333E-004
  1.31072E+001	  2.32821E-004
  1.47456E+001	  2.32821E-004
  1.63840E+001	  2.32821E-004
  1.80224E+001	  2.32821E-004
  1.96608E+001	  2.32821E-004
  2.12992E+001	  2.32821E-004
  2.29376E+001	  2.32821E-004
  2.45760E+001	  2.32821E-004
  2.62144E+001	  1.71461E-004
  2.94912E+001	  1.71461E-004
  3.27680E+001	  1.71461E-004
  3.60448E+001	  1.71461E-004
  3.93216E+001	  1.71461E-004
  4.25984E+001	  1.71461E-004
  4.58752E+001	  1.71461E-004
  4.91520E+001	  1.71461E-004
  5.24288E+001	  1.23660E-004
  5.89824E+001	  1.23660E-004
  6.55360E+001	  1.23660E-004
  7.20896E+001	  1.23660E-004
  7.86432E+001	  1.23660E-004
  8.51968E+001	  1.23660E-004
  9.17504E+001	  1.23660E-004
  9.83040E+001	  1.23660E-004
  1.04858E+002	  8.82954E-005
  1.17965E+002	  8.82954E-005
  1.31072E+002	  8.82954E-005
  1.44179E+002	  8.82954E-005
  1.57286E+002	  8.82954E-005
  1.70394E+002	  8.82954E-005
  1.83501E+002	  8.82954E-005
  1.96608E+002	  8.82954E-005
  2.09715E+002	  6.27364E-005
  2.35930E+002	  6.27364E-005
  2.62144E+002	  6.27364E-005
  2.88358E+002	  6.27364E-005
  3.14573E+002	  6.27364E-005
  3.40787E+002	  6.27364E-005
  3.67002E+002	  6.27364E-005
  3.93216E+002	  6.27364E-005
  4.19430E+002	  4.44680E-005
  4.71859E+002	  4.44680E-005
  5.24288E+002	  4.44680E-005
  5.76717E+002	  4.44680E-005
  6.29146E+002	  4.44680E-005
  6.81574E+002	  4.44680E-005
  7.34003E+002	  4.44680E-005
  7.86432E+002	  4.44680E-005
  8.38861E+002	  3.14811E-005
  9.43718E+002	  3.14811E-005
  1.04858E+003	  3.14811E-005
  1.15343E+003	  3.14811E-005
  1.25829E+003	  3.14811E-005
  1.36315E+003	  3.14811E-005
  1.46801E+003	  3.14811E-005
  1.57286E+003	  3.14811E-005
  1.67772E+003	  2.22734E-005
  1.88744E+003	  2.22734E-005
  2.09715E+003	  2.22734E-005
  2.30687E+003	  2.22734E-005
  2.51658E+003	  2.22734E-005
  2.72630E+003	  2.22734E-005
  2.93601E+003	  2.22734E-005
  3.14573E+003	  2.22734E-005
  3.35544E+003	  1.57538E-005
  3.77487E+003	  1.57538E-005
  4.19430E+003	  1.57538E-005
  4.61373E+003	  1.57538E-005
  5.03317E+003	  1.57538E-005
  5.45260E+003	  1.57538E-005
  5.87203E+003	  1.57538E-005
  6.29146E+003	  1.57538E-005
  6.71089E+003	  1.11404E-005
  7.54975E+003	  1.11404E-005
  8.38861E+003	  1.11404E-005
  9.22747E+003	  1.11404E-005
  1.00663E+004	  1.11404E-005
  1.09052E+004	  1.11404E-005
  1.17441E+004	  1.11404E-005
