ALV-7004 or ALV-7004/FAST Data
Date :	"3/27/2010"
Time :	"11:46:32 AM"
Samplename : 	"BSA 4 g/l in YCl3 8.3mM"
SampMemo(0) : 	""
SampMemo(1) : 	""
SampMemo(2) : 	""
SampMemo(3) : 	""
SampMemo(4) : 	""
SampMemo(5) : 	""
SampMemo(6) : 	""
SampMemo(7) : 	""
SampMemo(8) : 	""
SampMemo(9) : 	""
Temperature [K] :	     295.71823
Viscosity [cp]  :	       0.94192
Refractive Index:	       1.33200
Wavelength [nm] :	     632.80000
Angle [°]       :	      30.00000
Duration [s]    :	        50
Runs            :	         1
Mode            :	"C-CH0/1+1/0"
MeanCR0 [kHz]   :	     423.39300
MeanCR1 [kHz]   :	     508.29216
MeanCR2 [kHz]   :	       0.00000
MeanCR3 [kHz]   :	       0.00000

"Correlation"
  3.12500E-006	  3.13056E-001	  2.99754E-001	 -1.00000E+000	 -1.00000E+000
  6.25000E-006	  3.07411E-001	  3.03151E-001	 -1.00000E+000	 -1.00000E+000
  9.37500E-006	  3.05921E-001	  3.12356E-001	 -1.00000E+000	 -1.00000E+000
  1.25000E-005	  2.98980E-001	  2.96448E-001	 -1.00000E+000	 -1.00000E+000
  1.56250E-005	  3.23066E-001	  3.24958E-001	 -1.00000E+000	 -1.00000E+000
  1.87500E-005	  3.28905E-001	  3.26447E-001	 -1.00000E+000	 -1.00000E+000
  2.18750E-005	  3.15648E-001	  3.24153E-001	 -1.00000E+000	 -1.00000E+000
  2.50000E-005	  3.26820E-001	  3.16080E-001	 -1.00000E+000	 -1.00000E+000
  2.81250E-005	  3.14620E-001	  3.19595E-001	 -1.00000E+000	 -1.00000E+000
  3.12500E-005	  3.22559E-001	  3.21978E-001	 -1.00000E+000	 -1.00000E+000
  3.43750E-005	  3.03285E-001	  3.02197E-001	 -1.00000E+000	 -9.99926E-001
  3.75000E-005	  3.18895E-001	  3.15573E-001	 -1.00000E+000	 -1.00000E+000
  4.06250E-005	  3.14277E-001	  3.15514E-001	 -1.00000E+000	  4.11236E-001
  4.37500E-005	  3.15678E-001	  3.25375E-001	 -1.00000E+000	  4.18953E-001
  4.68750E-005	  3.16780E-001	  3.10330E-001	 -1.00000E+000	 -3.05301E-001
  5.00000E-005	  3.20980E-001	  3.15499E-001	 -1.00000E+000	  8.78107E-001
  5.62500E-005	  3.13160E-001	  3.15171E-001	 -1.00000E+000	  4.09623E-001
  6.25000E-005	  3.16348E-001	  3.11298E-001	 -1.00000E+000	  4.28817E-001
  6.87500E-005	  3.15462E-001	  3.15722E-001	 -9.74160E-001	  4.90483E-001
  7.50000E-005	  3.15693E-001	  3.16661E-001	  7.14421E-001	  3.22125E-001
  8.12500E-005	  3.25762E-001	  3.19491E-001	  4.93073E-001	  3.38962E-001
  8.75000E-005	  3.18687E-001	  3.19908E-001	  4.43556E-001	  3.30959E-001
  9.37500E-005	  3.15871E-001	  3.19982E-001	  4.15231E-001	  3.52101E-001
  1.00000E-004	  3.16121E-001	  3.18739E-001	  3.76229E-001	  3.28514E-001
  1.12500E-004	  3.14229E-001	  3.13518E-001	  3.76605E-001	  3.35413E-001
  1.25000E-004	  3.14903E-001	  3.14173E-001	  3.49656E-001	  3.37981E-001
  1.37500E-004	  3.15666E-001	  3.13227E-001	  3.26194E-001	  3.28564E-001
  1.50000E-004	  3.19740E-001	  3.19081E-001	  3.13668E-001	  3.33918E-001
  1.62500E-004	  3.18199E-001	  3.16124E-001	  3.08437E-001	  3.25859E-001
  1.75000E-004	  3.22321E-001	  3.17614E-001	  3.07489E-001	  3.26244E-001
  1.87500E-004	  3.15086E-001	  3.11939E-001	  3.17736E-001	  3.30090E-001
  2.00000E-004	  3.17106E-001	  3.18917E-001	  3.12519E-001	  3.28943E-001
  2.25000E-004	  3.14661E-001	  3.16839E-001	  3.10440E-001	  3.29033E-001
  2.50000E-004	  3.17443E-001	  3.16732E-001	  3.10583E-001	  3.28474E-001
  2.75000E-004	  3.17834E-001	  3.17223E-001	  3.15818E-001	  3.29454E-001
  3.00000E-004	  3.17944E-001	  3.17651E-001	  3.16685E-001	  3.28642E-001
  3.25000E-004	  3.17554E-001	  3.19457E-001	  3.14562E-001	  3.32289E-001
  3.50000E-004	  3.17469E-001	  3.16173E-001	  3.09818E-001	  3.28778E-001
  3.75000E-004	  3.12274E-001	  3.10982E-001	  3.20986E-001	  3.28567E-001
  4.00000E-004	  3.15814E-001	  3.15184E-001	  3.16455E-001	  3.26152E-001
  4.50000E-004	  3.15678E-001	  3.16227E-001	  3.18199E-001	  3.24283E-001
  5.00000E-004	  3.16653E-001	  3.16804E-001	  3.15509E-001	  3.24766E-001
  5.50000E-004	  3.15920E-001	  3.14134E-001	  3.14264E-001	  3.24547E-001
  6.00000E-004	  3.15737E-001	  3.14257E-001	  3.16278E-001	  3.26999E-001
  6.50000E-004	  3.14735E-001	  3.12838E-001	  3.14933E-001	  3.24291E-001
  7.00000E-004	  3.15287E-001	  3.15987E-001	  3.17106E-001	  3.23347E-001
  7.50000E-004	  3.16211E-001	  3.15711E-001	  3.16495E-001	  3.24000E-001
  8.00000E-004	  3.15571E-001	  3.16036E-001	  3.16031E-001	  3.23959E-001
  9.00000E-004	  3.16317E-001	  3.15230E-001	  3.14249E-001	  3.24690E-001
  1.00000E-003	  3.15948E-001	  3.15100E-001	  3.15574E-001	  3.23223E-001
  1.10000E-003	  3.15161E-001	  3.15298E-001	  3.14365E-001	  3.22346E-001
  1.20000E-003	  3.14343E-001	  3.15396E-001	  3.15864E-001	  3.22787E-001
  1.30000E-003	  3.13987E-001	  3.13316E-001	  3.16590E-001	  3.21766E-001
  1.40000E-003	  3.14230E-001	  3.13638E-001	  3.12738E-001	  3.23168E-001
  1.50000E-003	  3.12674E-001	  3.11272E-001	  3.17072E-001	  3.21130E-001
  1.60000E-003	  3.13693E-001	  3.13276E-001	  3.14324E-001	  3.22045E-001
  1.80000E-003	  3.14547E-001	  3.14893E-001	  3.13444E-001	  3.21196E-001
  2.00000E-003	  3.12491E-001	  3.12321E-001	  3.13205E-001	  3.20733E-001
  2.20000E-003	  3.12444E-001	  3.12493E-001	  3.11870E-001	  3.20635E-001
  2.40000E-003	  3.12799E-001	  3.13021E-001	  3.12503E-001	  3.20704E-001
  2.60000E-003	  3.11655E-001	  3.11248E-001	  3.11333E-001	  3.20473E-001
  2.80000E-003	  3.11578E-001	  3.11437E-001	  3.12167E-001	  3.21850E-001
  3.00000E-003	  3.11826E-001	  3.11950E-001	  3.13264E-001	  3.20392E-001
  3.20000E-003	  3.11244E-001	  3.11685E-001	  3.11826E-001	  3.20150E-001
  3.60000E-003	  3.10261E-001	  3.10607E-001	  3.12652E-001	  3.18602E-001
  4.00000E-003	  3.09418E-001	  3.09725E-001	  3.11810E-001	  3.17971E-001
  4.40000E-003	  3.09028E-001	  3.09112E-001	  3.10143E-001	  3.17474E-001
  4.80000E-003	  3.08104E-001	  3.07486E-001	  3.10598E-001	  3.16197E-001
  5.20000E-003	  3.07383E-001	  3.06879E-001	  3.09978E-001	  3.16126E-001
  5.60000E-003	  3.07306E-001	  3.07599E-001	  3.09231E-001	  3.15399E-001
  6.00000E-003	  3.06208E-001	  3.06703E-001	  3.07654E-001	  3.13575E-001
  6.40000E-003	  3.05583E-001	  3.05614E-001	  3.06938E-001	  3.14021E-001
  7.20000E-003	  3.04039E-001	  3.03873E-001	  3.05395E-001	  3.12469E-001
  8.00000E-003	  3.03532E-001	  3.03765E-001	  3.04663E-001	  3.11391E-001
  8.80000E-003	  3.02133E-001	  3.02072E-001	  3.02963E-001	  3.09738E-001
  9.60000E-003	  3.00603E-001	  3.00989E-001	  3.01579E-001	  3.07798E-001
  1.04000E-002	  2.99205E-001	  2.99169E-001	  2.99741E-001	  3.07221E-001
  1.12000E-002	  2.97485E-001	  2.98331E-001	  2.99579E-001	  3.05861E-001
  1.20000E-002	  2.96949E-001	  2.96870E-001	  2.98042E-001	  3.04118E-001
  1.28000E-002	  2.95505E-001	  2.95178E-001	  2.96713E-001	  3.03174E-001
  1.44000E-002	  2.92944E-001	  2.93053E-001	  2.93889E-001	  3.00071E-001
  1.60000E-002	  2.90534E-001	  2.90457E-001	  2.92080E-001	  2.98504E-001
  1.76000E-002	  2.87868E-001	  2.88134E-001	  2.89271E-001	  2.95758E-001
  1.92000E-002	  2.85444E-001	  2.85650E-001	  2.87430E-001	  2.93110E-001
  2.08000E-002	  2.83285E-001	  2.83678E-001	  2.84064E-001	  2.90514E-001
  2.24000E-002	  2.80967E-001	  2.81363E-001	  2.82047E-001	  2.87949E-001
  2.40000E-002	  2.78181E-001	  2.78302E-001	  2.79589E-001	  2.85829E-001
  2.56000E-002	  2.75896E-001	  2.76125E-001	  2.77402E-001	  2.83235E-001
  2.88000E-002	  2.71653E-001	  2.71794E-001	  2.72602E-001	  2.78773E-001
  3.20000E-002	  2.66910E-001	  2.66975E-001	  2.68296E-001	  2.74395E-001
  3.52000E-002	  2.62749E-001	  2.62921E-001	  2.63660E-001	  2.69592E-001
  3.84000E-002	  2.58316E-001	  2.58390E-001	  2.59406E-001	  2.64964E-001
  4.16000E-002	  2.53681E-001	  2.53829E-001	  2.55167E-001	  2.60575E-001
  4.48000E-002	  2.50060E-001	  2.50238E-001	  2.50625E-001	  2.56263E-001
  4.80000E-002	  2.45922E-001	  2.46318E-001	  2.46857E-001	  2.52190E-001
  5.12000E-002	  2.41755E-001	  2.42005E-001	  2.42653E-001	  2.47963E-001
  5.76000E-002	  2.33802E-001	  2.33919E-001	  2.34494E-001	  2.40127E-001
  6.40000E-002	  2.26258E-001	  2.26492E-001	  2.26897E-001	  2.32288E-001
  7.04000E-002	  2.18666E-001	  2.19007E-001	  2.19624E-001	  2.24776E-001
  7.68000E-002	  2.11849E-001	  2.12246E-001	  2.12522E-001	  2.17549E-001
  8.32000E-002	  2.05018E-001	  2.05415E-001	  2.05782E-001	  2.10587E-001
  8.96000E-002	  1.98346E-001	  1.98823E-001	  1.99028E-001	  2.03751E-001
  9.60000E-002	  1.92059E-001	  1.92640E-001	  1.92994E-001	  1.97490E-001
  1.02400E-001	  1.85922E-001	  1.86286E-001	  1.86725E-001	  1.91316E-001
  1.15200E-001	  1.74407E-001	  1.74842E-001	  1.74891E-001	  1.79120E-001
  1.28000E-001	  1.63372E-001	  1.63752E-001	  1.63773E-001	  1.67860E-001
  1.40800E-001	  1.53142E-001	  1.53394E-001	  1.53506E-001	  1.57381E-001
  1.53600E-001	  1.43594E-001	  1.43886E-001	  1.44014E-001	  1.47466E-001
  1.66400E-001	  1.34583E-001	  1.34956E-001	  1.35021E-001	  1.38389E-001
  1.79200E-001	  1.26111E-001	  1.26491E-001	  1.26521E-001	  1.29547E-001
  1.92000E-001	  1.18321E-001	  1.18711E-001	  1.18586E-001	  1.21472E-001
  2.04800E-001	  1.11032E-001	  1.11306E-001	  1.11507E-001	  1.13964E-001
  2.30400E-001	  9.76919E-002	  9.79533E-002	  9.82449E-002	  1.00248E-001
  2.56000E-001	  8.61108E-002	  8.63627E-002	  8.67327E-002	  8.81197E-002
  2.81600E-001	  7.59303E-002	  7.60043E-002	  7.62167E-002	  7.78598E-002
  3.07200E-001	  6.70024E-002	  6.70831E-002	  6.74739E-002	  6.86166E-002
  3.32800E-001	  5.92705E-002	  5.93079E-002	  5.98064E-002	  6.05083E-002
  3.58400E-001	  5.24015E-002	  5.26207E-002	  5.28874E-002	  5.35071E-002
  3.84000E-001	  4.63483E-002	  4.65577E-002	  4.68083E-002	  4.74191E-002
  4.09600E-001	  4.10716E-002	  4.12321E-002	  4.13334E-002	  4.20799E-002
  4.60800E-001	  3.21143E-002	  3.23448E-002	  3.22719E-002	  3.28802E-002
  5.12000E-001	  2.53283E-002	  2.55150E-002	  2.53657E-002	  2.60094E-002
  5.63200E-001	  1.99124E-002	  2.00854E-002	  1.97510E-002	  2.05345E-002
  6.14400E-001	  1.55755E-002	  1.56243E-002	  1.54977E-002	  1.60718E-002
  6.65600E-001	  1.21178E-002	  1.20930E-002	  1.20762E-002	  1.24762E-002
  7.16800E-001	  9.51495E-003	  9.48573E-003	  9.37136E-003	  9.79292E-003
  7.68000E-001	  7.31636E-003	  7.29391E-003	  7.16290E-003	  7.59965E-003
  8.19200E-001	  5.48984E-003	  5.39718E-003	  5.41258E-003	  5.71503E-003
  9.21600E-001	  3.11131E-003	  2.94841E-003	  3.12568E-003	  3.17006E-003
  1.02400E+000	  2.19674E-003	  2.04944E-003	  2.08852E-003	  2.38089E-003
  1.12640E+000	  1.75832E-003	  1.71727E-003	  1.63167E-003	  1.97396E-003
  1.22880E+000	  1.16620E-003	  1.02006E-003	  1.07685E-003	  1.27004E-003
  1.33120E+000	  4.76906E-004	  3.87420E-004	  3.84256E-004	  5.77186E-004
  1.43360E+000	 -2.44943E-004	 -1.90672E-004	 -4.18092E-004	 -1.52275E-004
  1.53600E+000	 -5.41937E-004	 -4.98754E-004	 -7.56406E-004	 -3.27578E-004
  1.63840E+000	 -6.86029E-004	 -5.72398E-004	 -9.02767E-004	 -5.52277E-004
  1.84320E+000	 -7.61174E-004	 -9.17595E-004	 -9.95574E-004	 -5.75143E-004
  2.04800E+000	 -7.32610E-004	 -6.31794E-004	 -7.82536E-004	 -6.24580E-004
  2.25280E+000	  1.42132E-004	  2.35427E-004	  2.28192E-004	  1.00078E-004
  2.45760E+000	  4.16266E-004	  6.05540E-004	  4.65361E-004	  3.11127E-004
  2.66240E+000	  2.97993E-004	  4.64451E-004	  3.66033E-004	  2.62986E-004
  2.86720E+000	 -2.16536E-004	 -1.23494E-004	 -1.43317E-004	 -3.03783E-004
  3.07200E+000	 -1.11203E-003	 -1.04989E-003	 -8.71793E-004	 -1.26874E-003
  3.27680E+000	 -9.11166E-004	 -8.58947E-004	 -7.18719E-004	 -1.03683E-003
  3.68640E+000	 -9.85264E-005	 -8.38203E-005	  3.74278E-005	 -2.27757E-004
  4.09600E+000	 -2.06450E-004	 -3.90685E-004	 -1.38094E-004	 -3.53024E-004
  4.50560E+000	  3.64468E-004	  2.78049E-004	  4.52914E-004	  2.63634E-004
  4.91520E+000	  2.55128E-004	  2.04259E-004	  3.33919E-004	  1.77605E-004
  5.32480E+000	 -9.82693E-005	 -6.31512E-005	  1.77929E-005	 -2.29165E-004
  5.73440E+000	 -7.68608E-004	 -8.15285E-004	 -9.71025E-004	 -6.09901E-004
  6.14400E+000	 -6.58589E-004	 -6.71646E-004	 -8.87275E-004	 -4.60105E-004
  6.55360E+000	 -1.36026E-003	 -1.38805E-003	 -1.55992E-003	 -1.17717E-003
  7.37280E+000	 -5.53096E-004	 -4.38968E-004	 -5.65357E-004	 -4.98547E-004
  8.19200E+000	  2.65778E-004	  3.68247E-004	  1.25214E-004	  4.05753E-004
  9.01120E+000	  3.16348E-004	  4.34690E-004	  7.50291E-005	  5.42382E-004
  9.83040E+000	  3.86520E-004	  3.96889E-004	  2.10424E-004	  5.55745E-004
  1.06496E+001	  1.29976E-005	 -1.28940E-004	 -7.27957E-005	  9.63009E-005
  1.14688E+001	  2.15079E-004	  1.77972E-004	  1.88457E-004	  3.04148E-004
  1.22880E+001	 -6.54923E-004	 -5.68456E-004	 -6.74230E-004	 -6.21444E-004
  1.31072E+001	 -3.23979E-004	 -2.56380E-004	 -2.15933E-004	 -4.31710E-004
  1.47456E+001	  1.92572E-004	  1.99662E-004	  1.53384E-004	  1.94554E-004
  1.63840E+001	  7.93038E-005	  8.02330E-005	  5.90606E-005	  1.10806E-004
  1.80224E+001	 -7.44105E-004	 -7.88448E-004	 -8.24827E-004	 -6.81771E-004
  1.96608E+001	  1.16002E-004	  2.34587E-004	  9.19897E-006	  2.00328E-004
  2.12992E+001	 -2.31713E-005	  5.75741E-005	  1.05710E-004	 -1.77280E-004
  2.29376E+001	 -4.37651E-004	 -3.66680E-004	 -4.73191E-004	 -3.98030E-004
  2.45760E+001	 -2.29427E-005	  6.41310E-005	 -5.01425E-005	  3.48787E-005
  2.62144E+001	 -2.76020E-004	 -3.20930E-004	 -2.40821E-004	 -2.90405E-004
  2.94912E+001	 -8.34365E-006	 -4.20978E-005	 -7.48749E-007	 -1.92934E-006
  3.27680E+001	 -3.31949E-004	 -3.74320E-004	 -2.99388E-004	 -3.60832E-004
  3.60448E+001	 -5.45325E-004	 -6.02976E-004	 -5.64078E-004	 -5.52445E-004
  3.93216E+001	 -3.65631E-005	 -6.69946E-005	 -9.93968E-005	  2.60808E-005
  4.25984E+001	  5.22752E-004	  5.30913E-004	  5.47371E-004	  5.20628E-004
  4.58752E+001	  4.61789E-004	  4.64678E-004	  4.09303E-004	  5.30820E-004
  4.91520E+001	 -4.14924E-005	  1.67967E-005	 -1.33445E-004	  5.26617E-005
  5.24288E+001	 -2.19651E-007	  2.26514E-005	  9.67653E-007	  2.32612E-005
  5.89824E+001	 -3.96562E-006	  2.84708E-005	 -3.93996E-005	  3.32847E-005
  6.55360E+001	  3.70220E-004	  4.05497E-004	  3.77851E-004	  3.81829E-004
  7.20896E+001	  1.30234E-005	  1.16890E-004	  1.63175E-006	  4.99673E-006
  7.86432E+001	 -1.99904E-004	 -2.30510E-004	 -2.34789E-004	 -1.60465E-004
  8.51968E+001	 -1.41434E-004	 -9.36619E-005	 -1.43181E-004	 -1.24970E-004
  9.17504E+001	  1.37050E-004	  1.39626E-004	  1.68050E-004	  1.15633E-004
  9.83040E+001	 -2.52284E-004	 -2.24490E-004	 -2.34087E-004	 -2.86958E-004
  1.04858E+002	 -2.53360E-004	 -2.57522E-004	 -2.88701E-004	 -2.29818E-004
  1.17965E+002	  1.21746E-004	  1.30667E-004	  1.00415E-004	  1.43814E-004
  1.31072E+002	 -8.25159E-005	 -9.10263E-005	 -1.15452E-004	 -3.31291E-005
  1.44179E+002	 -1.76142E-004	 -2.20183E-004	 -2.02149E-004	 -1.45154E-004
  1.57286E+002	 -1.43170E-004	 -1.16559E-004	 -1.50792E-004	 -1.30755E-004
  1.70394E+002	  1.29309E-004	  1.00098E-004	  1.56777E-004	  1.15754E-004
  1.83501E+002	  4.22643E-004	  4.21146E-004	  4.46788E-004	  4.00966E-004
  1.96608E+002	  6.40812E-005	  5.33361E-005	  5.32554E-005	  7.29662E-005
  2.09715E+002	  7.37472E-005	  6.97205E-005	  8.86358E-005	  5.94344E-005
  2.35930E+002	  2.03145E-004	  1.98754E-004	  2.31216E-004	  1.79003E-004
  2.62144E+002	 -5.57745E-005	 -3.84321E-005	 -4.35098E-005	 -7.60168E-005
  2.88358E+002	  7.40622E-005	  8.05102E-005	  5.98510E-005	  9.13472E-005
  3.14573E+002	  4.62401E-006	  1.22664E-005	  2.82476E-006	  5.94614E-006
  3.40787E+002	 -1.41241E-004	 -1.21585E-004	 -1.38225E-004	 -1.42066E-004
  3.67002E+002	  3.19222E-005	  1.76209E-005	  2.36200E-005	  2.95176E-005
  3.93216E+002	 -2.40911E-005	 -4.26297E-005	 -1.16160E-005	 -3.17909E-005
  4.19430E+002	  1.53110E-004	  1.57158E-004	  1.53713E-004	  1.50497E-004
  4.71859E+002	 -2.14002E-004	 -2.06547E-004	 -2.11065E-004	 -2.19118E-004
  5.24288E+002	  1.79651E-004	  1.78423E-004	  1.76747E-004	  1.82704E-004
  5.76717E+002	  3.63127E-005	  7.22332E-006	  3.21986E-005	  4.52433E-005
  6.29146E+002	  1.03614E-004	  1.10537E-004	  1.34124E-004	  7.05896E-005
  6.81574E+002	  7.99872E-005	  6.50389E-005	  7.56889E-005	  7.62358E-005
  7.34003E+002	  4.52576E-005	  3.80342E-005	  3.19013E-005	  6.53975E-005
  7.86432E+002	  8.09966E-005	  9.14822E-005	  1.00848E-004	  6.10712E-005
  8.38861E+002	 -1.33462E-005	  4.58581E-007	 -2.48103E-005	 -2.60854E-007
  9.43718E+002	  2.77028E-005	  2.85175E-005	  2.61620E-005	  2.82736E-005
  1.04858E+003	 -3.74150E-005	 -2.05061E-005	 -4.27270E-005	 -3.71351E-005
  1.15343E+003	  1.17382E-004	  1.10073E-004	  1.15032E-004	  1.21964E-004
  1.25829E+003	 -6.34287E-005	 -7.06906E-005	 -6.58013E-005	 -6.32604E-005
  1.36315E+003	  6.16208E-005	  7.16988E-005	  4.99945E-005	  7.27416E-005
  1.46801E+003	 -1.18415E-004	 -1.21769E-004	 -1.14608E-004	 -1.18714E-004
  1.57286E+003	 -5.15977E-005	 -4.45422E-005	 -5.33027E-005	 -5.12575E-005
  1.67772E+003	  6.37451E-006	  7.19283E-006	 -2.43781E-006	  1.18939E-005
  1.88744E+003	  2.03000E-005	  3.46755E-005	  3.48913E-005	  5.92718E-006
  2.09715E+003	  1.75100E-005	  1.33771E-005	  2.06451E-005	  1.51092E-005
  2.30687E+003	 -3.58073E-005	 -4.63709E-005	 -2.49893E-005	 -4.80354E-005
  2.51658E+003	  1.58800E-005	  5.51196E-006	  1.00558E-005	  1.87726E-005
  2.72630E+003	  3.89410E-005	  3.80447E-005	  4.17555E-005	  3.39538E-005
  2.93601E+003	  4.14308E-005	  3.80430E-005	  4.46834E-005	  3.61729E-005
  3.14573E+003	 -3.25122E-005	 -4.62881E-005	 -3.68257E-005	 -3.33533E-005
  3.35544E+003	 -1.83112E-006	 -1.01796E-005	 -4.43298E-006	  1.42366E-006
  3.77487E+003	  9.46606E-006	  6.87744E-006	  9.87389E-006	  9.65650E-006
  4.19430E+003	  1.31259E-005	  9.11010E-006	  1.63382E-005	  1.47434E-005
  4.61373E+003	  6.43639E-006	  4.59545E-006	  1.42348E-005	 -6.82115E-007
  5.03317E+003	 -9.03655E-006	 -7.75993E-006	 -5.00606E-006	 -1.19090E-005
  5.45260E+003	  3.55577E-007	  7.83536E-006	  3.71875E-007	 -2.59744E-006
  5.87203E+003	  1.01337E-005	  1.54311E-005	  1.40631E-005	  5.63170E-006
  6.29146E+003	 -3.54623E-006	  4.77879E-006	  1.40504E-006	 -1.00688E-005
  6.71089E+003	  4.70062E-006	  8.21999E-006	 -2.68150E-007	  1.11516E-005
  7.54975E+003	 -4.97242E-005	 -4.92837E-005	 -5.75930E-005	 -4.37821E-005
  8.38861E+003	 -7.15139E-005	 -8.00626E-005	 -7.36316E-005	 -6.69862E-005
  9.22747E+003	 -2.27987E-005	 -2.80829E-005	 -2.41371E-005	 -2.38749E-005
  1.00663E+004	 -9.46925E-007	  1.07229E-005	 -8.98330E-006	  9.22609E-006
  1.09052E+004	 -3.43257E-005	 -3.11926E-005	 -3.49374E-005	 -3.25818E-005
  1.17441E+004	 -4.40965E-005	 -3.43944E-005	 -4.34336E-005	 -4.88044E-005

"Count Rate"
       0.19531	     422.20975	     501.78833	     422.20975	     501.78833
       0.39063	     433.71045	     518.88330	     433.71045	     518.88330
       0.58594	     445.97379	     542.50916	     445.97379	     542.50916
       0.78125	     422.10739	     509.23538	     422.10739	     509.23538
       0.97656	     434.79553	     523.45392	     434.79553	     523.45392
       1.17188	     429.42648	     512.00946	     429.42648	     512.00946
       1.36719	     433.39825	     517.14307	     433.39825	     517.14307
       1.56250	     434.70340	     518.91400	     434.70340	     518.91400
       1.75781	     417.80804	     498.07248	     417.80804	     498.07248
       1.95313	     428.49496	     517.83917	     428.49496	     517.83917
       2.14844	     399.30557	     480.91098	     399.30557	     480.91098
       2.34375	     416.16510	     501.82416	     416.16510	     501.82416
       2.53906	     432.91202	     518.30493	     432.91202	     518.30493
       2.73438	     434.93372	     523.79169	     434.93372	     523.79169
       2.92969	     416.61038	     497.62720	     416.61038	     497.62720
       3.12500	     421.02231	     509.27634	     421.02231	     509.27634
       3.32031	     420.68964	     508.07355	     420.68964	     508.07355
       3.51563	     433.92032	     520.39319	     433.92032	     520.39319
       3.71094	     421.00183	     509.56808	     421.00183	     509.56808
       3.90625	     423.85269	     508.80545	     423.85269	     508.80545
       4.10156	     426.93903	     516.65173	     426.93903	     516.65173
       4.29688	     433.31635	     520.18335	     433.31635	     520.18335
       4.49219	     415.99106	     495.17554	     415.99106	     495.17554
       4.68750	     416.50290	     501.99307	     416.50290	     501.99307
       4.88281	     426.13034	     509.18933	     426.13034	     509.18933
       5.07813	     428.83789	     512.73114	     428.83789	     512.73114
       5.27344	     423.57120	     506.52783	     423.57120	     506.52783
       5.46875	     432.67145	     518.41241	     432.67145	     518.41241
       5.66406	     419.80417	     502.70450	     419.80417	     502.70450
       5.85938	     420.86877	     503.37500	     420.86877	     503.37500
       6.05469	     438.79800	     527.22095	     438.79800	     527.22095
       6.25000	     414.82410	     499.86386	     414.82410	     499.86386
       6.44531	     423.48932	     505.59631	     423.48932	     505.59631
       6.64063	     419.51755	     506.88098	     419.51755	     506.88098
       6.83594	     416.43637	     498.86069	     416.43637	     498.86069
       7.03125	     429.47253	     516.05292	     429.47253	     516.05292
       7.22656	     434.92859	     516.96393	     434.92859	     516.96393
       7.42188	     407.95541	     492.64203	     407.95541	     492.64203
       7.61719	     421.54437	     504.71597	     421.54437	     504.71597
       7.81250	     418.18167	     493.89087	     418.18167	     493.89087
       8.00781	     429.20126	     519.19037	     429.20126	     519.19037
       8.20313	     412.45435	     501.00012	     412.45435	     501.00012
       8.39844	     419.03644	     501.04108	     419.03644	     501.04108
       8.59375	     416.78952	     495.99960	     416.78952	     495.99960
       8.78906	     417.87970	     498.40005	     417.87970	     498.40005
       8.98438	     431.49936	     519.51794	     431.49936	     519.51794
       9.17969	     402.60684	     479.37039	     402.60684	     479.37039
       9.37500	     425.50079	     511.86105	     425.50079	     511.86105
       9.57031	     422.50150	     502.66867	     422.50150	     502.66867
       9.76563	     430.99268	     520.66443	     430.99268	     520.66443
       9.96094	     428.70480	     513.80597	     428.70480	     513.80597
      10.15625	     404.51596	     486.48477	     404.51596	     486.48477
      10.35156	     444.72495	     533.72620	     444.72495	     533.72620
      10.54688	     424.07791	     509.23029	     424.07791	     509.23029
      10.74219	     422.19440	     508.99484	     422.19440	     508.99484
      10.93750	     438.12750	     522.62476	     438.12750	     522.62476
      11.13281	     421.98965	     504.05573	     421.98965	     504.05573
      11.32813	     417.49585	     499.60284	     417.49585	     499.60284
      11.52344	     446.96161	     541.40363	     446.96161	     541.40363
      11.71875	     418.15610	     504.03012	     418.15610	     504.03012
      11.91406	     416.40564	     497.61185	     416.40564	     497.61185
      12.10938	     429.21152	     518.28955	     429.21152	     518.28955
      12.30469	     425.64410	     511.32877	     425.64410	     511.32877
      12.50000	     403.35410	     485.29733	     403.35410	     485.29733
      12.69531	     410.89841	     494.20309	     410.89841	     494.20309
      12.89063	     433.60297	     515.36194	     433.60297	     515.36194
      13.08594	     422.08691	     506.06207	     422.08691	     506.06207
      13.28125	     419.79904	     505.40182	     419.79904	     505.40182
      13.47656	     404.84351	     489.68878	     404.84351	     489.68878
      13.67188	     420.71521	     506.53806	     420.71521	     506.53806
      13.86719	     411.86063	     493.44046	     411.86063	     493.44046
      14.06250	     415.35129	     501.06665	     415.35129	     501.06665
      14.25781	     425.71576	     515.65369	     425.71576	     515.65369
      14.45313	     422.72668	     505.74985	     422.72668	     505.74985
      14.64844	     413.42169	     492.56525	     413.42169	     492.56525
      14.84375	     432.76358	     520.80261	     432.76358	     520.80261
      15.03906	     443.03592	     535.94757	     443.03592	     535.94757
      15.23438	     420.51050	     497.11536	     420.51050	     497.11536
      15.42969	     421.67233	     504.21951	     421.67233	     504.21951
      15.62500	     439.87283	     531.00330	     439.87283	     531.00330
      15.82031	     428.67923	     512.23468	     428.67923	     512.23468
      16.01563	     417.23480	     496.31180	     417.23480	     496.31180
      16.21094	     425.13739	     508.62631	     425.13739	     508.62631
      16.40625	     412.36224	     499.97647	     412.36224	     499.97647
      16.60156	     426.70358	     511.17520	     426.70358	     511.17520
      16.79688	     429.48279	     520.11169	     429.48279	     520.11169
      16.99219	     421.01208	     514.18475	     421.01208	     514.18475
      17.18750	     418.93405	     500.73911	     418.93405	     500.73911
      17.38281	     418.40176	     499.23431	     418.40176	     499.23431
      17.57813	     432.54861	     522.69128	     432.54861	     522.69128
      17.77344	     420.85342	     506.84515	     420.85342	     506.84515
      17.96875	     439.32520	     527.76855	     439.32520	     527.76855
      18.16406	     422.52197	     507.89954	     422.52197	     507.89954
      18.35938	     415.36664	     498.29767	     415.36664	     498.29767
      18.55469	     418.54507	     504.27069	     418.54507	     504.27069
      18.75000	     402.59149	     482.49252	     402.59149	     482.49252
      18.94531	     423.81177	     506.60461	     423.81177	     506.60461
      19.14063	     425.54684	     510.56613	     425.54684	     510.56613
      19.33594	     410.44287	     493.49164	     410.44287	     493.49164
      19.53125	     418.02301	     498.58432	     418.02301	     498.58432
      19.72656	     417.33716	     495.90234	     417.33716	     495.90234
      19.92188	     412.28546	     496.90552	     412.28546	     496.90552
      20.11719	     422.80859	     504.54196	     422.80859	     504.54196
      20.31250	     415.90918	     504.20413	     415.90918	     504.20413
      20.50781	     430.27612	     514.33826	     430.27612	     514.33826
      20.70313	     437.60544	     520.35736	     437.60544	     520.35736
      20.89844	     439.74487	     525.19409	     439.74487	     525.19409
      21.09375	     437.84601	     521.79047	     437.84601	     521.79047
      21.28906	     430.74698	     515.83282	     430.74698	     515.83282
      21.48438	     442.95401	     536.86371	     442.95401	     536.86371
      21.67969	     423.31528	     502.92459	     423.31528	     502.92459
      21.87500	     423.85782	     511.37994	     423.85782	     511.37994
      22.07031	     413.39612	     494.73538	     413.39612	     494.73538
      22.26563	     417.74152	     504.10690	     417.74152	     504.10690
      22.46094	     430.53201	     518.96008	     430.53201	     518.96008
      22.65625	     411.82480	     497.30475	     411.82480	     497.30475
      22.85156	     420.75616	     507.45422	     420.75616	     507.45422
      23.04688	     420.26993	     504.68015	     420.26993	     504.68015
      23.24219	     428.65875	     517.70099	     428.65875	     517.70099
      23.43750	     423.02866	     503.85098	     423.02866	     503.85098
      23.63281	     444.35641	     537.58026	     444.35641	     537.58026
      23.82813	     436.12628	     523.63812	     436.12628	     523.63812
      24.02344	     445.56433	     532.73328	     445.56433	     532.73328
      24.21875	     422.58337	     508.21173	     422.58337	     508.21173
      24.41406	     415.50482	     498.84534	     415.50482	     498.84534
      24.60938	     433.78723	     522.48145	     433.78723	     522.48145
      24.80469	     431.20251	     521.45264	     431.20251	     521.45264
      25.00000	     445.49780	     538.26611	     445.49780	     538.26611
      25.19531	     425.94608	     512.12720	     425.94608	     512.12720
      25.39063	     429.48279	     513.05359	     429.48279	     513.05359
      25.58594	     421.76956	     503.29309	     421.76956	     503.29309
      25.78125	     454.81302	     544.83795	     454.81302	     544.83795
      25.97656	     434.17111	     517.90057	     434.17111	     517.90057
      26.17188	     429.72333	     516.45721	     429.72333	     516.45721
      26.36719	     422.24557	     507.77158	     422.24557	     507.77158
      26.56250	     425.80789	     515.94031	     425.80789	     515.94031
      26.75781	     416.98401	     499.73080	     416.98401	     499.73080
      26.95313	     439.22281	     528.55170	     439.22281	     528.55170
      27.14844	     421.21170	     504.81323	     421.21170	     504.81323
      27.34375	     431.93954	     516.67218	     431.93954	     516.67218
      27.53906	     443.97766	     536.54639	     443.97766	     536.54639
      27.73438	     435.39438	     523.47949	     435.39438	     523.47949
      27.92969	     425.38306	     508.92319	     425.38306	     508.92319
      28.12500	     418.74469	     500.03790	     418.74469	     500.03790
      28.32031	     425.94095	     504.17343	     425.94095	     504.17343
      28.51563	     412.52600	     493.01053	     412.52600	     493.01053
      28.71094	     409.10190	     489.68878	     409.10190	     489.68878
      28.90625	     421.42154	     508.04285	     421.42154	     508.04285
      29.10156	     412.99176	     498.08270	     412.99176	     498.08270
      29.29688	     418.96478	     502.98599	     418.96478	     502.98599
      29.49219	     419.38446	     500.43710	     419.38446	     500.43710
      29.68750	     411.88110	     488.67026	     411.88110	     488.67026
      29.88281	     422.16879	     503.78958	     422.16879	     503.78958
      30.07813	     431.00290	     517.12775	     431.00290	     517.12775
      30.27344	     422.73181	     508.68774	     422.73181	     508.68774
      30.46875	     435.92154	     527.43079	     435.92154	     527.43079
      30.66406	     417.93088	     502.34109	     417.93088	     502.34109
      30.85938	     416.58478	     502.66867	     416.58478	     502.66867
      31.05469	     431.64267	     523.14166	     431.64267	     523.14166
      31.25000	     435.79358	     526.04370	     435.79358	     526.04370
      31.44531	     418.52460	     504.62384	     418.52460	     504.62384
      31.64063	     408.12943	     495.18579	     408.12943	     495.18579
      31.83594	     421.35501	     510.67361	     421.35501	     510.67361
      32.03125	     429.66193	     517.79309	     429.66193	     517.79309
      32.22656	     418.82657	     501.85486	     418.82657	     501.85486
      32.42188	     419.74274	     498.92212	     419.74274	     498.92212
      32.61719	     420.49002	     503.41592	     420.49002	     503.41592
      32.81250	     423.00308	     506.96289	     423.00308	     506.96289
      33.00781	     409.90036	     497.02835	     409.90036	     497.02835
      33.20313	     414.85992	     491.07584	     414.85992	     491.07584
      33.39844	     435.05145	     522.97278	     435.05145	     522.97278
      33.59375	     413.85165	     495.03735	     413.85165	     495.03735
      33.78906	     400.65680	     481.77597	     400.65680	     481.77597
      33.98438	     424.45667	     509.79840	     424.45667	     509.79840
      34.17969	     440.09293	     527.84021	     440.09293	     527.84021
      34.37500	     408.45700	     490.83014	     408.45700	     490.83014
      34.57031	     428.20834	     512.91541	     428.20834	     512.91541
      34.76563	     413.11462	     496.41415	     413.11462	     496.41415
      34.96094	     424.10861	     518.46869	     424.10861	     518.46869
      35.15625	     422.73694	     513.03314	     422.73694	     513.03314
      35.35156	     419.79395	     505.15103	     419.79395	     505.15103
      35.54688	     400.64142	     480.92633	     400.64142	     480.92633
      35.74219	     423.62750	     516.32416	     423.62750	     516.32416
      35.93750	     413.47800	     498.07761	     413.47800	     498.07761
      36.13281	     422.07666	     507.05502	     422.07666	     507.05502
      36.32813	     427.61975	     510.79645	     427.61975	     510.79645
      36.52344	     390.86557	     465.84283	     390.86557	     465.84283
      36.71875	     416.24698	     505.23291	     416.24698	     505.23291
      36.91406	     428.40283	     512.24493	     428.40283	     512.24493
      37.10938	     421.09909	     514.51740	     421.09909	     514.51740
      37.30469	     446.96161	     541.35242	     446.96161	     541.35242
      37.50000	     413.75952	     495.57990	     413.75952	     495.57990
      37.69531	     413.38077	     496.02518	     413.38077	     496.02518
      37.89063	     408.59518	     491.02975	     408.59518	     491.02975
      38.08594	     442.66229	     525.96698	     442.66229	     525.96698
      38.28125	     423.06448	     503.02695	     423.06448	     503.02695
      38.47656	     410.73975	     495.48776	     410.73975	     495.48776
      38.67188	     434.64197	     521.72906	     434.64197	     521.72906
      38.86719	     438.82358	     526.55554	     438.82358	     526.55554
      39.06250	     420.26993	     511.31851	     420.26993	     511.31851
      39.25781	     417.73639	     498.68155	     417.73639	     498.68155
      39.45313	     425.50589	     512.50085	     425.50589	     512.50085
      39.64844	     419.21558	     506.59949	     419.21558	     506.59949
      39.84375	     445.41589	     535.19006	     445.41589	     535.19006
      40.03906	     428.59732	     514.88593	     428.59732	     514.88593
      40.23438	     432.23639	     518.50964	     432.23639	     518.50964
      40.42969	     416.19067	     499.16266	     416.19067	     499.16266
      40.62500	     425.42914	     516.01709	     425.42914	     516.01709
      40.82031	     409.83893	     493.26645	     409.83893	     493.26645
      41.01563	     406.94199	     487.46234	     406.94199	     487.46234
      41.21094	     413.29886	     494.50507	     413.29886	     494.50507
      41.40625	     419.34354	     502.32574	     419.34354	     502.32574
      41.60156	     419.06714	     504.93607	     419.06714	     504.93607
      41.79688	     421.39594	     501.82928	     421.39594	     501.82928
      41.99219	     429.64145	     516.72852	     429.64145	     516.72852
      42.18750	     426.62167	     514.18475	     426.62167	     514.18475
      42.38281	     429.69263	     512.30634	     429.69263	     512.30634
      42.57813	     420.35693	     500.75446	     420.35693	     500.75446
      42.77344	     433.55179	     510.77597	     433.55179	     510.77597
      42.96875	     424.34406	     507.08060	     424.34406	     507.08060
      43.16406	     420.11127	     505.23291	     420.11127	     505.23291
      43.35938	     418.45294	     498.57919	     418.45294	     498.57919
      43.55469	     419.69156	     504.19904	     419.69156	     504.19904
      43.75000	     427.38940	     518.52502	     427.38940	     518.52502
      43.94531	     411.91693	     497.00278	     411.91693	     497.00278
      44.14063	     442.73904	     532.67188	     442.73904	     532.67188
      44.33594	     420.26480	     504.89511	     420.26480	     504.89511
      44.53125	     408.25739	     482.53348	     408.25739	     482.53348
      44.72656	     424.60510	     505.17151	     424.60510	     505.17151
      44.92188	     404.85376	     485.18472	     404.85376	     485.18472
      45.11719	     406.38412	     490.87622	     406.38412	     490.87622
      45.31250	     427.37918	     511.85083	     427.37918	     511.85083
      45.50781	     435.80893	     519.04706	     435.80893	     519.04706
      45.70313	     411.64056	     494.79169	     411.64056	     494.79169
      45.89844	     409.83380	     490.52817	     409.83380	     490.52817
      46.09375	     422.80347	     507.57709	     422.80347	     507.57709
      46.28906	     399.59732	     479.03769	     399.59732	     479.03769
      46.48438	     432.73288	     517.70099	     432.73288	     517.70099
      46.67969	     430.60367	     514.66583	     430.60367	     514.66583
      46.87500	     418.30450	     493.44559	     418.30450	     493.44559
      47.07031	     424.82516	     514.54303	     424.82516	     514.54303
      47.26563	     417.39859	     507.21881	     417.39859	     507.21881
      47.46094	     430.84937	     517.06122	     430.84937	     517.06122
      47.65625	     424.52319	     507.19321	     424.52319	     507.19321
      47.85156	     413.42682	     495.24719	     413.42682	     495.24719
      48.04688	     418.81635	     506.03647	     418.81635	     506.03647
      48.24219	     423.35623	     507.98654	     423.35623	     507.98654
      48.43750	     425.54172	     513.77014	     425.54172	     513.77014
      48.63281	     418.08954	     500.80563	     418.08954	     500.80563
      48.82813	     423.84760	     505.86246	     423.84760	     505.86246
      49.02344	     431.07968	     515.86865	     431.07968	     515.86865
      49.21875	     407.38730	     496.32715	     407.38730	     496.32715
      49.41406	     426.63193	     511.37482	     426.63193	     511.37482
      49.60938	     413.10437	     490.60495	     413.10437	     490.60495

Monitor Diode	1633805.12
"StandardDeviation"
  3.12500E-006	  7.46482E-003
  6.25000E-006	  7.46487E-003
  9.37500E-006	  7.46469E-003
  1.25000E-005	  7.46483E-003
  1.56250E-005	  7.46479E-003
  1.87500E-005	  7.46481E-003
  2.18750E-005	  7.46482E-003
  2.50000E-005	  7.46486E-003
  2.81250E-005	  7.45180E-003
  3.12500E-005	  7.46481E-003
  3.43750E-005	  7.41092E-003
  3.75000E-005	  7.45458E-003
  4.06250E-005	  7.44175E-003
  4.37500E-005	  7.44560E-003
  4.68750E-005	  7.44865E-003
  5.00000E-005	  5.32843E-003
  5.62500E-005	  5.31311E-003
  6.25000E-005	  5.31936E-003
  6.87500E-005	  5.31763E-003
  7.50000E-005	  5.31814E-003
  8.12500E-005	  5.33154E-003
  8.75000E-005	  5.31790E-003
  9.37500E-005	  5.31235E-003
  1.00000E-004	  3.83102E-003
  1.12500E-004	  3.82844E-003
  1.25000E-004	  3.82939E-003
  1.37500E-004	  3.83043E-003
  1.50000E-004	  3.83590E-003
  1.62500E-004	  3.83382E-003
  1.75000E-004	  3.83936E-003
  1.87500E-004	  3.82955E-003
  2.00000E-004	  2.81200E-003
  2.25000E-004	  2.80975E-003
  2.50000E-004	  2.81232E-003
  2.75000E-004	  2.81266E-003
  3.00000E-004	  2.81275E-003
  3.25000E-004	  2.81237E-003
  3.50000E-004	  2.81231E-003
  3.75000E-004	  2.80758E-003
  4.00000E-004	  2.12421E-003
  4.50000E-004	  2.12414E-003
  5.00000E-004	  2.12472E-003
  5.50000E-004	  2.12425E-003
  6.00000E-004	  2.12411E-003
  6.50000E-004	  2.12350E-003
  7.00000E-004	  2.12384E-003
  7.50000E-004	  2.12435E-003
  8.00000E-004	  1.67900E-003
  9.00000E-004	  1.67930E-003
  1.00000E-003	  1.67907E-003
  1.10000E-003	  1.67877E-003
  1.20000E-003	  1.67847E-003
  1.30000E-003	  1.67829E-003
  1.40000E-003	  1.67838E-003
  1.50000E-003	  1.67780E-003
  1.60000E-003	  1.40382E-003
  1.80000E-003	  1.40386E-003
  2.00000E-003	  1.40336E-003
  2.20000E-003	  1.40331E-003
  2.40000E-003	  1.40333E-003
  2.60000E-003	  1.40304E-003
  2.80000E-003	  1.40301E-003
  3.00000E-003	  1.40300E-003
  3.20000E-003	  1.24326E-003
  3.60000E-003	  1.24288E-003
  4.00000E-003	  1.24272E-003
  4.40000E-003	  1.24257E-003
  4.80000E-003	  1.24232E-003
  5.20000E-003	  1.24212E-003
  5.60000E-003	  1.24195E-003
  6.00000E-003	  1.24175E-003
  6.40000E-003	  1.15368E-003
  7.20000E-003	  1.15304E-003
  8.00000E-003	  1.15273E-003
  8.80000E-003	  1.15236E-003
  9.60000E-003	  1.15195E-003
  1.04000E-002	  1.15159E-003
  1.12000E-002	  1.15120E-003
  1.20000E-002	  1.15078E-003
  1.28000E-002	  1.10394E-003
  1.44000E-002	  1.10266E-003
  1.60000E-002	  1.10186E-003
  1.76000E-002	  1.10112E-003
  1.92000E-002	  1.10026E-003
  2.08000E-002	  1.09940E-003
  2.24000E-002	  1.09855E-003
  2.40000E-002	  1.09763E-003
  2.56000E-002	  1.07282E-003
  2.88000E-002	  1.06983E-003
  3.20000E-002	  1.06786E-003
  3.52000E-002	  1.06573E-003
  3.84000E-002	  1.06351E-003
  4.16000E-002	  1.06136E-003
  4.48000E-002	  1.05899E-003
  4.80000E-002	  1.05658E-003
  5.12000E-002	  1.04181E-003
  5.76000E-002	  1.03511E-003
  6.40000E-002	  1.02969E-003
  7.04000E-002	  1.02432E-003
  7.68000E-002	  1.01872E-003
  8.32000E-002	  1.01285E-003
  8.96000E-002	  1.00686E-003
  9.60000E-002	  1.00077E-003
  1.02400E-001	  9.88259E-004
  1.15200E-001	  9.73353E-004
  1.28000E-001	  9.60805E-004
  1.40800E-001	  9.47920E-004
  1.53600E-001	  9.35069E-004
  1.66400E-001	  9.22482E-004
  1.79200E-001	  9.10328E-004
  1.92000E-001	  8.98775E-004
  2.04800E-001	  8.81670E-004
  2.30400E-001	  8.59156E-004
  2.56000E-001	  8.39873E-004
  2.81600E-001	  8.21804E-004
  3.07200E-001	  8.04943E-004
  3.32800E-001	  7.89294E-004
  3.58400E-001	  7.74984E-004
  3.84000E-001	  7.61927E-004
  4.09600E-001	  7.35385E-004
  4.60800E-001	  7.13869E-004
  5.12000E-001	  6.97535E-004
  5.63200E-001	  6.84341E-004
  6.14400E-001	  6.73426E-004
  6.65600E-001	  6.64353E-004
  7.16800E-001	  6.32668E-004
  7.68000E-001	  6.32668E-004
  8.19200E-001	  6.37624E-004
  9.21600E-001	  6.37624E-004
  1.02400E+000	  6.37624E-004
  1.12640E+000	  6.37624E-004
  1.22880E+000	  6.37624E-004
  1.33120E+000	  6.37624E-004
  1.43360E+000	  6.37624E-004
  1.53600E+000	  6.37624E-004
  1.63840E+000	  6.14458E-004
  1.84320E+000	  6.14458E-004
  2.04800E+000	  6.14458E-004
  2.25280E+000	  6.14458E-004
  2.45760E+000	  6.14458E-004
  2.66240E+000	  6.14458E-004
  2.86720E+000	  6.14458E-004
  3.07200E+000	  6.14458E-004
  3.27680E+000	  5.63630E-004
  3.68640E+000	  5.63630E-004
  4.09600E+000	  5.63630E-004
  4.50560E+000	  5.63630E-004
  4.91520E+000	  5.63630E-004
  5.32480E+000	  5.63630E-004
  5.73440E+000	  5.63630E-004
  6.14400E+000	  5.63630E-004
  6.55360E+000	  4.85414E-004
  7.37280E+000	  4.85414E-004
  8.19200E+000	  4.85414E-004
  9.01120E+000	  4.85414E-004
  9.83040E+000	  4.85414E-004
  1.06496E+001	  4.85414E-004
  1.14688E+001	  4.85414E-004
  1.22880E+001	  4.85414E-004
  1.31072E+001	  3.94274E-004
  1.47456E+001	  3.94274E-004
  1.63840E+001	  3.94274E-004
  1.80224E+001	  3.94274E-004
  1.96608E+001	  3.94274E-004
  2.12992E+001	  3.94274E-004
  2.29376E+001	  3.94274E-004
  2.45760E+001	  3.94274E-004
  2.62144E+001	  2.97983E-004
  2.94912E+001	  2.97983E-004
  3.27680E+001	  2.97983E-004
  3.60448E+001	  2.97983E-004
  3.93216E+001	  2.97983E-004
  4.25984E+001	  2.97983E-004
  4.58752E+001	  2.97983E-004
  4.91520E+001	  2.97983E-004
  5.24288E+001	  2.17534E-004
  5.89824E+001	  2.17534E-004
  6.55360E+001	  2.17534E-004
  7.20896E+001	  2.17534E-004
  7.86432E+001	  2.17534E-004
  8.51968E+001	  2.17534E-004
  9.17504E+001	  2.17534E-004
  9.83040E+001	  2.17534E-004
  1.04858E+002	  1.56234E-004
  1.17965E+002	  1.56234E-004
  1.31072E+002	  1.56234E-004
  1.44179E+002	  1.56234E-004
  1.57286E+002	  1.56234E-004
  1.70394E+002	  1.56234E-004
  1.83501E+002	  1.56234E-004
  1.96608E+002	  1.56234E-004
  2.09715E+002	  1.11328E-004
  2.35930E+002	  1.11328E-004
  2.62144E+002	  1.11328E-004
  2.88358E+002	  1.11328E-004
  3.14573E+002	  1.11328E-004
  3.40787E+002	  1.11328E-004
  3.67002E+002	  1.11328E-004
  3.93216E+002	  1.11328E-004
  4.19430E+002	  7.90225E-005
  4.71859E+002	  7.90225E-005
  5.24288E+002	  7.90225E-005
  5.76717E+002	  7.90225E-005
  6.29146E+002	  7.90225E-005
  6.81574E+002	  7.90225E-005
  7.34003E+002	  7.90225E-005
  7.86432E+002	  7.90225E-005
  8.38861E+002	  5.59841E-005
  9.43718E+002	  5.59841E-005
  1.04858E+003	  5.59841E-005
  1.15343E+003	  5.59841E-005
  1.25829E+003	  5.59841E-005
  1.36315E+003	  5.59841E-005
  1.46801E+003	  5.59841E-005
  1.57286E+003	  5.59841E-005
  1.67772E+003	  3.96244E-005
  1.88744E+003	  3.96244E-005
  2.09715E+003	  3.96244E-005
  2.30687E+003	  3.96244E-005
  2.51658E+003	  3.96244E-005
  2.72630E+003	  3.96244E-005
  2.93601E+003	  3.96244E-005
  3.14573E+003	  3.96244E-005
  3.35544E+003	  2.80320E-005
  3.77487E+003	  2.80320E-005
  4.19430E+003	  2.80320E-005
  4.61373E+003	  2.80320E-005
  5.03317E+003	  2.80320E-005
  5.45260E+003	  2.80320E-005
  5.87203E+003	  2.80320E-005
  6.29146E+003	  2.80320E-005
  6.71089E+003	  1.98264E-005
  7.54975E+003	  1.98264E-005
  8.38861E+003	  1.98264E-005
  9.22747E+003	  1.98264E-005
  1.00663E+004	  1.98264E-005
  1.09052E+004	  1.98264E-005
  1.17441E+004	  1.98264E-005
