ALV-7004 or ALV-7004/FAST Data
Date :	"3/27/2010"
Time :	"11:12:35 AM"
Samplename : 	"BSA 1 g/l in YCl3 8.3mM"
SampMemo(0) : 	""
SampMemo(1) : 	""
SampMemo(2) : 	""
SampMemo(3) : 	""
SampMemo(4) : 	""
SampMemo(5) : 	""
SampMemo(6) : 	""
SampMemo(7) : 	""
SampMemo(8) : 	""
SampMemo(9) : 	""
Temperature [K] :	     295.68698
Viscosity [cp]  :	       0.94252
Refractive Index:	       1.33200
Wavelength [nm] :	     632.80000
Angle [°]       :	     120.00000
Duration [s]    :	        70
Runs            :	         1
Mode            :	"C-CH0/1+1/0"
MeanCR0 [kHz]   :	      65.32533
MeanCR1 [kHz]   :	      78.31900
MeanCR2 [kHz]   :	       0.00000
MeanCR3 [kHz]   :	       0.00000

"Correlation"
  3.12500E-006	  9.87157E-001	  9.40593E-001	 -3.00000E+000	 -3.00000E+000
  6.25000E-006	  9.36074E-001	  8.64444E-001	 -3.00000E+000	 -3.00000E+000
  9.37500E-006	  9.75496E-001	  9.50411E-001	 -3.00000E+000	 -3.00000E+000
  1.25000E-005	  8.92208E-001	  8.15169E-001	 -3.00000E+000	 -3.00000E+000
  1.56250E-005	  9.92053E-001	  1.01758E+000	 -3.00000E+000	 -3.00000E+000
  1.87500E-005	  9.78169E-001	  9.71910E-001	 -3.00000E+000	 -3.00000E+000
  2.18750E-005	  9.29393E-001	  8.94012E-001	 -3.00000E+000	 -3.00000E+000
  2.50000E-005	  9.39226E-001	  9.66531E-001	 -3.00000E+000	 -3.00000E+000
  2.81250E-005	  9.99681E-001	  1.00147E+000	 -3.00000E+000	 -3.00000E+000
  3.12500E-005	  8.55921E-001	  9.21751E-001	 -3.00000E+000	 -3.00000E+000
  3.43750E-005	  8.97569E-001	  9.27133E-001	 -3.00000E+000	 -2.99925E+000
  3.75000E-005	  9.19522E-001	  8.68919E-001	 -3.00000E+000	 -3.00000E+000
  4.06250E-005	  9.22660E-001	  9.02944E-001	 -3.00000E+000	  2.07762E+000
  4.37500E-005	  9.83562E-001	  9.87129E-001	 -3.00000E+000	  2.64393E+000
  4.68750E-005	  9.90267E-001	  9.48624E-001	 -3.00000E+000	 -5.74279E-001
  5.00000E-005	  9.95879E-001	  9.47306E-001	 -3.00000E+000	  3.66950E+000
  5.62500E-005	  9.55352E-001	  9.79527E-001	 -3.00000E+000	  1.86448E+000
  6.25000E-005	  9.16606E-001	  8.89977E-001	 -3.00000E+000	  1.86864E+000
  6.87500E-005	  9.02280E-001	  9.08762E-001	 -2.89304E+000	  1.94175E+000
  7.50000E-005	  9.26907E-001	  9.20861E-001	  2.69992E+000	  1.47354E+000
  8.12500E-005	  9.50198E-001	  9.69676E-001	  1.39545E+000	  1.35673E+000
  8.75000E-005	  9.55348E-001	  9.96542E-001	  1.33263E+000	  1.32691E+000
  9.37500E-005	  9.63180E-001	  9.94299E-001	  1.28469E+000	  1.35119E+000
  1.00000E-004	  9.64305E-001	  9.44380E-001	  1.14444E+000	  1.26423E+000
  1.12500E-004	  9.68778E-001	  9.74383E-001	  1.11326E+000	  1.25157E+000
  1.25000E-004	  9.53330E-001	  9.65428E-001	  1.02861E+000	  1.22437E+000
  1.37500E-004	  9.24232E-001	  8.99154E-001	  9.95239E-001	  1.11182E+000
  1.50000E-004	  9.13032E-001	  9.19755E-001	  1.00628E+000	  1.10814E+000
  1.62500E-004	  9.17962E-001	  9.36098E-001	  9.38582E-001	  1.09902E+000
  1.75000E-004	  9.30724E-001	  9.36552E-001	  8.85386E-001	  1.07884E+000
  1.87500E-004	  8.96246E-001	  8.74977E-001	  9.26480E-001	  1.06335E+000
  2.00000E-004	  9.22772E-001	  9.10345E-001	  9.79434E-001	  1.03902E+000
  2.25000E-004	  9.12644E-001	  8.98480E-001	  9.23953E-001	  1.03724E+000
  2.50000E-004	  9.31671E-001	  9.22881E-001	  9.02591E-001	  1.04023E+000
  2.75000E-004	  9.29713E-001	  9.30835E-001	  9.44791E-001	  9.96745E-001
  3.00000E-004	  8.96465E-001	  8.89524E-001	  9.48126E-001	  1.00887E+000
  3.25000E-004	  9.25061E-001	  9.11913E-001	  9.09411E-001	  9.71353E-001
  3.50000E-004	  9.13645E-001	  9.16946E-001	  9.55128E-001	  1.01876E+000
  3.75000E-004	  9.26460E-001	  9.36084E-001	  8.84065E-001	  9.77927E-001
  4.00000E-004	  9.06621E-001	  8.95850E-001	  9.32277E-001	  9.94310E-001
  4.50000E-004	  9.06118E-001	  9.03179E-001	  9.58390E-001	  9.92837E-001
  5.00000E-004	  8.96492E-001	  9.01332E-001	  9.06011E-001	  9.79982E-001
  5.50000E-004	  9.07463E-001	  9.01165E-001	  9.16975E-001	  9.66514E-001
  6.00000E-004	  8.88514E-001	  8.90979E-001	  9.14364E-001	  9.47043E-001
  6.50000E-004	  8.89213E-001	  8.81855E-001	  9.01913E-001	  9.50267E-001
  7.00000E-004	  8.98950E-001	  9.00097E-001	  8.69987E-001	  9.35530E-001
  7.50000E-004	  8.82551E-001	  8.76697E-001	  9.07071E-001	  9.15462E-001
  8.00000E-004	  8.86064E-001	  8.94808E-001	  9.05165E-001	  9.27230E-001
  9.00000E-004	  8.85744E-001	  8.78494E-001	  8.74061E-001	  9.20452E-001
  1.00000E-003	  8.86850E-001	  8.79081E-001	  8.68035E-001	  9.14880E-001
  1.10000E-003	  8.70602E-001	  8.65591E-001	  8.77365E-001	  9.23852E-001
  1.20000E-003	  8.63969E-001	  8.68758E-001	  8.66546E-001	  9.26684E-001
  1.30000E-003	  8.67607E-001	  8.69900E-001	  8.38285E-001	  9.03919E-001
  1.40000E-003	  8.57577E-001	  8.63441E-001	  8.39904E-001	  8.90404E-001
  1.50000E-003	  8.42375E-001	  8.43089E-001	  8.42661E-001	  8.80015E-001
  1.60000E-003	  8.50116E-001	  8.49039E-001	  8.42119E-001	  8.80106E-001
  1.80000E-003	  8.50684E-001	  8.49068E-001	  8.37613E-001	  8.55417E-001
  2.00000E-003	  8.27649E-001	  8.24437E-001	  8.16468E-001	  8.50611E-001
  2.20000E-003	  8.05877E-001	  8.01840E-001	  8.08522E-001	  8.51664E-001
  2.40000E-003	  8.01917E-001	  8.05016E-001	  7.95727E-001	  8.29242E-001
  2.60000E-003	  7.92541E-001	  7.94856E-001	  7.89730E-001	  8.23874E-001
  2.80000E-003	  7.88751E-001	  7.94213E-001	  7.90490E-001	  8.04478E-001
  3.00000E-003	  7.85895E-001	  7.79984E-001	  7.93511E-001	  8.05261E-001
  3.20000E-003	  7.65347E-001	  7.69221E-001	  7.61762E-001	  7.94981E-001
  3.60000E-003	  7.58368E-001	  7.53284E-001	  7.52289E-001	  7.78788E-001
  4.00000E-003	  7.36280E-001	  7.38926E-001	  7.35494E-001	  7.44242E-001
  4.40000E-003	  7.14057E-001	  7.13099E-001	  7.10254E-001	  7.31935E-001
  4.80000E-003	  6.95249E-001	  6.99211E-001	  6.93377E-001	  7.22786E-001
  5.20000E-003	  6.80710E-001	  6.81642E-001	  6.87214E-001	  6.96700E-001
  5.60000E-003	  6.67135E-001	  6.61792E-001	  6.78342E-001	  6.87761E-001
  6.00000E-003	  6.53953E-001	  6.50704E-001	  6.59885E-001	  6.62145E-001
  6.40000E-003	  6.38914E-001	  6.35419E-001	  6.43597E-001	  6.49552E-001
  7.20000E-003	  6.04257E-001	  6.05695E-001	  6.06568E-001	  6.24171E-001
  8.00000E-003	  5.76663E-001	  5.74983E-001	  5.81059E-001	  5.88982E-001
  8.80000E-003	  5.51942E-001	  5.50535E-001	  5.57059E-001	  5.66157E-001
  9.60000E-003	  5.29166E-001	  5.31441E-001	  5.29650E-001	  5.40582E-001
  1.04000E-002	  5.03461E-001	  5.05231E-001	  5.08904E-001	  5.09537E-001
  1.12000E-002	  4.77264E-001	  4.77646E-001	  4.87750E-001	  4.86902E-001
  1.20000E-002	  4.55863E-001	  4.59294E-001	  4.57934E-001	  4.69191E-001
  1.28000E-002	  4.34822E-001	  4.33155E-001	  4.33301E-001	  4.44377E-001
  1.44000E-002	  3.90800E-001	  3.90175E-001	  4.05162E-001	  4.04637E-001
  1.60000E-002	  3.55510E-001	  3.54424E-001	  3.62267E-001	  3.68232E-001
  1.76000E-002	  3.25188E-001	  3.28875E-001	  3.28409E-001	  3.30866E-001
  1.92000E-002	  2.94461E-001	  2.94184E-001	  2.99984E-001	  3.01180E-001
  2.08000E-002	  2.68037E-001	  2.71325E-001	  2.80268E-001	  2.78676E-001
  2.24000E-002	  2.44604E-001	  2.45415E-001	  2.47313E-001	  2.50172E-001
  2.40000E-002	  2.19837E-001	  2.19713E-001	  2.27258E-001	  2.28515E-001
  2.56000E-002	  2.02510E-001	  2.02890E-001	  2.06313E-001	  2.06643E-001
  2.88000E-002	  1.67765E-001	  1.68474E-001	  1.68394E-001	  1.70892E-001
  3.20000E-002	  1.38173E-001	  1.38633E-001	  1.44200E-001	  1.40032E-001
  3.52000E-002	  1.14790E-001	  1.13460E-001	  1.15615E-001	  1.14423E-001
  3.84000E-002	  9.54900E-002	  9.56798E-002	  9.91561E-002	  9.62080E-002
  4.16000E-002	  7.93019E-002	  7.86072E-002	  7.76085E-002	  7.97581E-002
  4.48000E-002	  6.54096E-002	  6.33750E-002	  6.94836E-002	  6.79030E-002
  4.80000E-002	  5.51565E-002	  5.47385E-002	  5.71210E-002	  5.38027E-002
  5.12000E-002	  4.40156E-002	  4.22414E-002	  4.80091E-002	  4.69174E-002
  5.76000E-002	  3.15160E-002	  3.09404E-002	  3.14612E-002	  3.05269E-002
  6.40000E-002	  2.21006E-002	  2.09673E-002	  2.28907E-002	  2.19671E-002
  7.04000E-002	  1.50243E-002	  1.32565E-002	  1.62520E-002	  1.55860E-002
  7.68000E-002	  9.42496E-003	  1.06699E-002	  8.72836E-003	  8.66714E-003
  8.32000E-002	  8.17842E-003	  9.05074E-003	  6.69199E-003	  8.03399E-003
  8.96000E-002	  4.22528E-003	  4.89545E-003	  3.21645E-003	  3.87671E-003
  9.60000E-002	  1.96867E-003	  1.47038E-003	  6.18146E-004	  3.67493E-003
  1.02400E-001	  2.37834E-003	  2.02039E-003	  1.35319E-003	  2.83224E-003
  1.15200E-001	  3.30042E-004	 -8.83532E-004	  8.06150E-004	  1.90601E-003
  1.28000E-001	  3.97272E-004	  8.71642E-004	  8.48725E-004	  1.86301E-003
  1.40800E-001	  9.81951E-004	  1.42258E-003	  4.55535E-004	  1.13653E-003
  1.53600E-001	  6.75694E-004	  2.12212E-004	 -1.33861E-004	 -2.14052E-004
  1.66400E-001	  2.31794E-003	  2.27454E-003	  1.00436E-003	  1.60318E-003
  1.79200E-001	  2.67431E-004	  5.18588E-004	 -9.78317E-004	  9.79624E-004
  1.92000E-001	 -3.69062E-005	  5.96428E-005	 -6.10824E-004	 -8.41542E-004
  2.04800E-001	 -6.32296E-004	 -1.66665E-003	 -1.28552E-005	 -1.59548E-004
  2.30400E-001	 -1.53128E-004	  7.65811E-005	  4.71943E-004	  3.87180E-004
  2.56000E-001	 -6.75012E-004	 -1.16113E-003	 -9.54252E-004	 -1.20217E-004
  2.81600E-001	  1.49466E-005	  6.84500E-004	  4.63164E-004	  5.88597E-004
  3.07200E-001	  5.79933E-005	  4.85019E-004	 -7.74644E-004	 -8.55505E-004
  3.32800E-001	 -8.11420E-004	 -9.50977E-004	 -1.45588E-003	 -7.94501E-004
  3.58400E-001	 -4.38807E-005	  6.55311E-004	  6.06249E-005	 -1.12179E-003
  3.84000E-001	 -2.18845E-004	  2.94830E-004	  3.32142E-004	  4.55469E-004
  4.09600E-001	  1.67585E-004	  5.62215E-004	 -2.84364E-004	 -9.48880E-005
  4.60800E-001	  9.47255E-005	 -3.76615E-004	 -1.30719E-004	  5.69809E-004
  5.12000E-001	 -5.36073E-004	 -4.95869E-004	 -1.02432E-003	  2.93090E-004
  5.63200E-001	 -8.26352E-006	 -1.75926E-004	 -5.90505E-004	  4.48151E-004
  6.14400E-001	 -2.26191E-005	  2.69711E-005	  6.42850E-004	  5.42660E-004
  6.65600E-001	  5.05550E-004	  1.72205E-003	 -8.33850E-004	  1.33751E-004
  7.16800E-001	  8.04709E-006	  3.03768E-004	 -1.17933E-004	 -3.11682E-004
  7.68000E-001	 -5.75458E-004	 -9.77688E-004	  5.60876E-004	 -1.20809E-003
  8.19200E-001	 -2.94125E-004	 -4.70534E-004	  2.70753E-004	 -3.27057E-004
  9.21600E-001	 -1.54043E-005	  3.46680E-004	  3.14717E-004	 -7.34342E-004
  1.02400E+000	 -1.52969E-004	 -1.88508E-004	 -6.27739E-004	 -4.95277E-004
  1.12640E+000	 -5.95486E-004	 -4.51227E-004	 -4.76384E-004	 -4.41051E-004
  1.22880E+000	  1.72178E-004	  4.50884E-004	 -2.63467E-005	  9.38471E-004
  1.33120E+000	 -2.68642E-004	 -6.31011E-004	 -5.21945E-004	 -3.41565E-004
  1.43360E+000	 -4.30921E-004	 -7.56712E-004	 -1.88179E-004	 -3.27044E-004
  1.53600E+000	  1.64569E-004	 -1.84099E-004	  3.78772E-004	  5.02846E-004
  1.63840E+000	 -1.63023E-005	  8.99761E-006	 -2.54383E-004	  1.82756E-004
  1.84320E+000	  3.38253E-006	  4.18379E-005	 -4.59029E-004	 -9.30804E-005
  2.04800E+000	 -4.14046E-004	 -4.36544E-004	 -7.09593E-004	 -2.16813E-004
  2.25280E+000	  8.60448E-005	 -3.89727E-005	 -2.26864E-004	  5.99782E-005
  2.45760E+000	  2.42286E-004	  1.90259E-004	  2.02712E-004	  4.27169E-004
  2.66240E+000	  3.80585E-004	  4.88205E-004	 -4.32050E-005	  4.59348E-004
  2.86720E+000	 -1.99706E-004	 -4.94108E-005	  6.59433E-005	 -4.96276E-006
  3.07200E+000	 -3.48965E-004	 -5.48246E-004	 -1.02455E-003	 -4.16403E-004
  3.27680E+000	 -1.65303E-004	 -4.72725E-004	 -3.56291E-004	 -5.40138E-005
  3.68640E+000	  3.15259E-004	  1.31054E-004	  1.30918E-004	  1.40329E-004
  4.09600E+000	  1.05727E-004	  1.93152E-004	  2.36408E-004	  1.17076E-004
  4.50560E+000	 -4.17470E-004	 -3.95443E-004	 -4.26991E-004	  1.93667E-004
  4.91520E+000	 -4.12707E-005	 -2.49039E-004	  1.69312E-007	 -3.44355E-004
  5.32480E+000	 -3.47478E-004	 -3.57948E-004	 -3.27660E-004	 -4.68720E-005
  5.73440E+000	 -1.54309E-004	 -1.55325E-004	  7.64537E-006	 -5.08598E-004
  6.14400E+000	 -6.17368E-006	 -1.64280E-004	 -1.46439E-004	 -1.91387E-004
  6.55360E+000	 -1.27479E-004	 -9.05515E-005	 -9.07419E-005	  3.57760E-005
  7.37280E+000	  9.64231E-005	  1.19053E-004	  1.48125E-004	  2.74397E-004
  8.19200E+000	 -1.73863E-005	  3.85271E-005	  2.14013E-004	 -9.32544E-005
  9.01120E+000	 -2.39409E-004	 -7.73308E-005	 -3.13738E-004	 -5.26132E-005
  9.83040E+000	  2.60427E-004	  4.71975E-004	  3.27331E-005	  3.70381E-004
  1.06496E+001	 -9.62059E-005	 -9.13355E-007	 -1.20146E-004	 -1.01740E-004
  1.14688E+001	  2.59215E-005	 -8.68437E-005	 -1.46503E-005	 -2.07533E-004
  1.22880E+001	  2.94616E-005	  6.01683E-005	  4.45593E-006	  3.25341E-005
  1.31072E+001	  1.60256E-004	  2.73733E-004	  2.05334E-004	  1.33341E-004
  1.47456E+001	 -1.66770E-004	 -1.63973E-004	  6.70540E-005	 -2.99902E-004
  1.63840E+001	 -1.21751E-004	 -2.05269E-004	  3.66194E-005	 -1.14313E-005
  1.80224E+001	  2.77370E-005	  4.25059E-005	 -1.02418E-004	  2.19164E-004
  1.96608E+001	  2.60336E-005	  1.32653E-004	  4.49054E-005	 -1.13655E-004
  2.12992E+001	 -5.49444E-005	 -1.67489E-004	  5.47219E-005	  5.25226E-005
  2.29376E+001	 -1.22371E-004	  3.46873E-005	  7.37738E-005	 -1.82875E-004
  2.45760E+001	 -3.45086E-005	 -2.02455E-005	 -4.49649E-005	 -1.59516E-004
  2.62144E+001	  5.89290E-005	  2.35767E-005	 -1.02529E-004	  9.95837E-005
  2.94912E+001	 -3.65487E-005	  1.57723E-005	  9.98223E-007	  3.08298E-006
  3.27680E+001	  5.26098E-005	 -1.90789E-005	  1.58299E-004	 -2.47103E-004
  3.60448E+001	 -7.75244E-005	 -2.05116E-004	  1.40421E-005	 -9.71577E-005
  3.93216E+001	  1.15177E-004	  2.95144E-004	  4.63094E-005	  6.53719E-005
  4.25984E+001	 -8.82745E-005	 -1.35780E-004	  5.36061E-005	 -1.92091E-005
  4.58752E+001	  6.03285E-005	  1.20599E-004	  5.87441E-005	 -8.60155E-006
  4.91520E+001	  1.52376E-006	  8.63418E-005	  1.32911E-004	  1.01819E-004
  5.24288E+001	 -9.76070E-005	 -9.99422E-005	 -6.06524E-005	  1.51950E-005
  5.89824E+001	 -9.36258E-006	  9.64317E-008	  5.67361E-005	  3.64529E-005
  6.55360E+001	  1.53735E-005	  1.53533E-005	  2.99644E-005	 -6.28095E-005
  7.20896E+001	 -2.20251E-005	  1.37077E-006	 -7.69205E-005	  1.10172E-004
  7.86432E+001	 -5.87267E-005	 -1.67160E-005	 -5.74368E-005	 -7.98221E-005
  8.51968E+001	 -7.03149E-005	 -7.06251E-005	 -3.17886E-005	 -7.98214E-005
  9.17504E+001	 -9.86874E-006	 -4.47741E-005	 -4.70023E-005	  1.83116E-005
  9.83040E+001	 -4.75707E-005	 -1.09405E-005	 -5.86989E-005	 -2.98317E-005
  1.04858E+002	  8.08192E-006	  2.23405E-005	 -2.60209E-006	  8.22876E-005
  1.17965E+002	  4.52813E-005	  1.16889E-005	  8.58019E-006	  5.95595E-005
  1.31072E+002	 -1.85367E-005	 -2.10767E-005	 -7.28300E-005	  2.49512E-005
  1.44179E+002	  6.09152E-005	  5.11476E-005	  1.60261E-005	  3.15672E-005
  1.57286E+002	  2.01383E-005	  2.32490E-006	  1.82865E-005	  1.13793E-005
  1.70394E+002	 -3.71468E-005	 -4.87096E-005	 -6.67812E-005	 -4.17431E-005
  1.83501E+002	 -1.75690E-005	 -1.27066E-005	 -1.15156E-005	 -2.28644E-005
  1.96608E+002	  5.49035E-005	 -1.28050E-005	  5.76861E-005	  4.13291E-005
  2.09715E+002	  1.36294E-005	  7.65071E-007	  5.85540E-005	 -2.41668E-005
  2.35930E+002	  1.87950E-005	  3.58239E-005	  4.48649E-006	  1.87284E-005
  2.62144E+002	  2.36138E-005	  3.00288E-005	  3.53645E-005	  1.53743E-005
  2.88358E+002	 -1.45138E-005	 -5.44053E-006	 -3.02200E-005	 -9.45476E-006
  3.14573E+002	 -5.66257E-005	 -2.88309E-005	 -8.23439E-005	 -3.96372E-005
  3.40787E+002	  9.28324E-006	 -2.39356E-005	  1.11933E-005	 -2.14427E-005
  3.67002E+002	 -3.35826E-005	 -3.45703E-005	 -3.11399E-005	  4.60025E-006
  3.93216E+002	 -2.45389E-005	 -2.01536E-005	 -7.54512E-005	 -4.87859E-005
  4.19430E+002	 -1.07526E-005	 -1.03419E-005	 -2.87750E-005	  7.17550E-006
  4.71859E+002	 -3.96992E-005	 -1.83514E-005	 -2.46456E-006	  4.43053E-006
  5.24288E+002	 -1.57407E-006	  8.71082E-006	 -3.08133E-006	  2.02560E-006
  5.76717E+002	 -5.45279E-006	  2.54722E-006	 -2.32326E-006	 -3.28707E-006
  6.29146E+002	 -1.16940E-005	 -3.17915E-006	 -1.52836E-005	  2.11704E-005
  6.81574E+002	  9.30990E-006	  2.29821E-005	 -1.38209E-005	  2.12851E-005
  7.34003E+002	  1.66521E-005	 -4.35968E-006	  3.81955E-005	  1.60950E-005
  7.86432E+002	 -2.70953E-006	 -2.02782E-005	 -1.22659E-005	  8.02499E-006
  8.38861E+002	 -1.58288E-005	 -9.42214E-006	  1.02363E-005	 -3.03706E-005
  9.43718E+002	  1.15286E-005	  7.98207E-006	  4.31093E-005	 -1.40025E-005
  1.04858E+003	 -6.33611E-006	  2.40968E-006	 -4.03706E-006	 -8.59896E-006
  1.15343E+003	 -3.07341E-006	 -8.60188E-006	  5.96077E-006	 -2.79279E-005
  1.25829E+003	  1.62845E-005	  1.90464E-005	  2.01366E-005	 -8.12645E-006
  1.36315E+003	 -1.83272E-005	 -9.31490E-006	 -7.85744E-006	 -1.23150E-005
  1.46801E+003	 -1.85585E-005	 -2.55250E-005	 -2.81882E-006	 -2.06723E-005
  1.57286E+003	  2.37051E-006	 -3.89586E-006	  1.28961E-005	 -1.63477E-006
  1.67772E+003	  7.35780E-006	  1.76753E-005	  1.32326E-005	  2.82965E-007
  1.88744E+003	  8.76107E-006	  1.49890E-005	  8.72553E-006	  9.35585E-006
  2.09715E+003	  9.98804E-006	  1.22309E-005	  2.93437E-005	 -1.08382E-005
  2.30687E+003	  4.96000E-006	 -5.68750E-007	  4.36956E-006	 -5.80069E-006
  2.51658E+003	 -1.06589E-005	 -1.58184E-005	 -9.22498E-006	 -4.51301E-006
  2.72630E+003	 -1.02301E-005	 -1.28495E-005	 -2.34437E-006	 -1.73013E-005
  2.93601E+003	  4.47725E-006	 -5.56093E-006	  1.72589E-005	  4.79135E-006
  3.14573E+003	  4.83965E-006	  5.41842E-006	  6.24213E-006	  7.52621E-006
  3.35544E+003	  5.42918E-006	  5.99068E-006	 -4.38814E-007	  1.25963E-005
  3.77487E+003	 -6.99038E-006	 -2.19265E-006	 -2.91059E-006	 -1.04467E-005
  4.19430E+003	 -2.97338E-006	 -9.92298E-007	 -8.54028E-006	 -8.72024E-006
  4.61373E+003	  1.32201E-005	  1.14667E-005	  1.18803E-005	  6.16045E-006
  5.03317E+003	  1.35058E-006	 -7.56574E-006	 -1.13450E-006	  3.95336E-006
  5.45260E+003	  5.73438E-006	  7.08887E-007	 -5.42092E-006	  8.10085E-006
  5.87203E+003	  6.03168E-006	  3.01083E-006	 -6.06156E-006	  1.14028E-005
  6.29146E+003	 -6.40810E-006	 -6.29860E-006	  6.49466E-007	 -1.56833E-005
  6.71089E+003	 -7.46584E-006	 -2.35012E-005	 -9.06065E-006	 -1.19613E-005
  7.54975E+003	  2.86798E-006	  2.70735E-006	 -4.05672E-006	 -5.04100E-006
  8.38861E+003	 -6.11089E-006	 -1.01130E-005	 -1.06418E-005	  3.96958E-006
  9.22747E+003	  5.44113E-006	  3.50717E-006	 -9.99401E-007	  3.27092E-006
  1.00663E+004	 -3.01919E-006	 -2.31378E-006	 -3.09127E-006	  5.42100E-006
  1.09052E+004	  7.76138E-006	  1.05872E-005	  1.21709E-005	 -9.59764E-006
  1.17441E+004	 -2.36803E-006	 -1.97705E-006	  1.20149E-006	 -6.57317E-006

"Count Rate"
       0.27344	      65.12366	      79.02077	      65.12366	      79.02077
       0.54688	      65.00667	      78.08844	      65.00667	      78.08844
       0.82031	      65.59166	      77.79594	      65.59166	      77.79594
       1.09375	      66.22417	      78.27856	      66.22417	      78.27856
       1.36719	      64.96280	      78.45040	      64.96280	      78.45040
       1.64063	      64.84946	      77.30602	      64.84946	      77.30602
       1.91406	      65.45272	      76.58575	      65.45272	      76.58575
       2.18750	      64.33759	      77.34624	      64.33759	      77.34624
       2.46094	      65.16389	      77.22193	      65.16389	      77.22193
       2.73438	      64.58987	      78.27125	      64.58987	      78.27125
       3.00781	      65.67941	      78.76118	      65.67941	      78.76118
       3.28125	      65.47832	      78.39556	      65.47832	      78.39556
       3.55469	      65.50391	      78.53815	      65.50391	      78.53815
       3.82813	      65.63919	      78.14694	      65.63919	      78.14694
       4.10156	      64.45824	      77.29140	      64.45824	      77.29140
       4.37500	      64.75805	      78.19813	      64.75805	      78.19813
       4.64844	      65.75619	      78.95496	      65.75619	      78.95496
       4.92188	      66.08524	      79.06829	      66.08524	      79.06829
       5.19531	      65.60629	      78.15060	      65.60629	      78.15060
       5.46875	      63.13106	      77.58023	      63.13106	      77.58023
       5.74219	      66.07427	      78.81602	      66.07427	      78.81602
       6.01563	      64.76902	      78.41750	      64.76902	      78.41750
       6.28906	      66.18396	      79.13776	      66.18396	      79.13776
       6.56250	      65.33939	      79.34251	      65.33939	      79.34251
       6.83594	      64.91527	      78.48331	      64.91527	      78.48331
       7.10938	      65.26991	      77.71552	      65.26991	      77.71552
       7.38281	      64.42899	      76.99525	      64.42899	      76.99525
       7.65625	      65.85125	      78.64418	      65.85125	      78.64418
       7.92969	      65.20410	      78.33340	      65.20410	      78.33340
       8.20313	      64.46556	      78.19813	      64.46556	      78.19813
       8.47656	      66.20589	      78.71365	      66.20589	      78.71365
       8.75000	      64.53137	      78.72462	      64.53137	      78.72462
       9.02344	      65.71597	      79.37541	      65.71597	      79.37541
       9.29688	      65.46369	      77.68261	      65.46369	      77.68261
       9.57031	      64.12919	      78.40287	      64.12919	      78.40287
       9.84375	      65.22604	      77.15977	      65.22604	      77.15977
      10.11719	      65.22970	      79.70812	      65.22970	      79.70812
      10.39063	      65.01033	      78.50524	      65.01033	      78.50524
      10.66406	      65.33939	      79.49241	      65.33939	      79.49241
      10.93750	      66.36311	      78.68074	      66.36311	      78.68074
      11.21094	      65.93900	      78.45040	      65.93900	      78.45040
      11.48438	      65.02129	      78.87817	      65.02129	      78.87817
      11.75781	      65.97556	      78.98786	      65.97556	      78.98786
      12.03125	      64.71783	      79.02808	      64.71783	      79.02808
      12.30469	      65.75984	      78.60396	      65.75984	      78.60396
      12.57813	      64.31566	      77.67529	      64.31566	      77.67529
      12.85156	      65.10538	      77.73013	      65.10538	      77.73013
      13.12500	      65.58434	      77.65336	      65.58434	      77.65336
      13.39844	      65.14926	      78.68074	      65.14926	      78.68074
      13.67188	      65.43444	      78.31147	      65.43444	      78.31147
      13.94531	      66.27536	      79.06098	      66.27536	      79.06098
      14.21875	      65.59531	      79.54725	      65.59531	      79.54725
      14.49219	      65.70134	      78.62224	      65.70134	      78.62224
      14.76563	      65.51122	      79.03539	      65.51122	      79.03539
      15.03906	      65.38691	      79.42294	      65.38691	      79.42294
      15.31250	      64.91161	      78.31512	      64.91161	      78.31512
      15.58594	      65.75619	      79.30229	      65.75619	      79.30229
      15.85938	      65.63553	      78.16888	      65.63553	      78.16888
      16.13281	      65.12366	      78.20544	      65.12366	      78.20544
      16.40625	      65.89512	      78.63686	      65.89512	      78.63686
      16.67969	      64.86043	      77.72648	      64.86043	      77.72648
      16.95313	      65.57703	      78.51987	      65.57703	      78.51987
      17.22656	      64.87139	      77.88370	      64.87139	      77.88370
      17.50000	      65.41616	      78.42481	      65.41616	      78.42481
      17.77344	      64.85677	      77.05740	      64.85677	      77.05740
      18.04688	      65.48563	      79.03905	      65.48563	      79.03905
      18.32031	      64.86043	      77.58023	      64.86043	      77.58023
      18.59375	      65.29916	      77.32796	      65.29916	      77.32796
      18.86719	      65.61359	      77.89466	      65.61359	      77.89466
      19.14063	      65.89146	      78.36996	      65.89146	      78.36996
      19.41406	      64.52040	      78.26028	      64.52040	      78.26028
      19.68750	      65.49294	      78.14694	      65.49294	      78.14694
      19.96094	      65.53681	      79.54725	      65.53681	      79.54725
      20.23438	      63.89520	      78.30050	      63.89520	      78.30050
      20.50781	      66.06696	      79.35348	      66.06696	      79.35348
      20.78125	      65.57703	      78.60396	      65.57703	      78.60396
      21.05469	      64.64837	      78.53815	      64.64837	      78.53815
      21.32813	      66.31924	      77.08665	      66.31924	      77.08665
      21.60156	      66.28999	      79.27304	      66.28999	      79.27304
      21.87500	      65.03226	      76.28230	      65.03226	      76.28230
      22.14844	      65.90974	      78.97689	      65.90974	      78.97689
      22.42188	      65.41251	      78.83796	      65.41251	      78.83796
      22.69531	      65.75984	      79.15239	      65.75984	      79.15239
      22.96875	      65.26260	      79.03539	      65.26260	      79.03539
      23.24219	      65.61725	      77.87273	      65.61725	      77.87273
      23.51563	      66.86401	      78.87452	      66.86401	      78.87452
      23.78906	      65.96093	      77.67895	      65.96093	      77.67895
      24.06250	      65.74522	      78.74655	      65.74522	      78.74655
      24.33594	      65.58434	      77.55830	      65.58434	      77.55830
      24.60938	      65.24432	      78.48696	      65.24432	      78.48696
      24.88281	      65.65747	      78.64053	      65.65747	      78.64053
      25.15625	      65.48563	      77.81057	      65.48563	      77.81057
      25.42969	      66.49473	      79.20723	      66.49473	      79.20723
      25.70313	      64.20963	      77.15977	      64.20963	      77.15977
      25.97656	      65.91340	      78.84527	      65.91340	      78.84527
      26.25000	      65.55144	      77.79594	      65.55144	      77.79594
      26.52344	      65.14561	      77.93123	      65.14561	      77.93123
      26.79688	      64.85311	      77.59486	      64.85311	      77.59486
      27.07031	      65.65382	      78.16522	      65.65382	      78.16522
      27.34375	      64.73246	      77.88004	      64.73246	      77.88004
      27.61719	      65.61725	      77.90198	      65.61725	      77.90198
      27.89063	      66.07793	      78.69537	      66.07793	      78.69537
      28.16406	      64.99570	      79.43025	      64.99570	      79.43025
      28.43750	      65.22238	      78.49062	      65.22238	      78.49062
      28.71094	      65.56241	      78.22738	      65.56241	      78.22738
      28.98438	      66.44354	      78.97689	      66.44354	      78.97689
      29.25781	      65.13098	      78.66977	      65.13098	      78.66977
      29.53125	      66.16202	      79.26207	      66.16202	      79.26207
      29.80469	      65.57703	      77.18903	      65.57703	      77.18903
      30.07813	      65.82931	      77.34989	      65.82931	      77.34989
      30.35156	      64.34856	      78.09209	      64.34856	      78.09209
      30.62500	      65.17486	      78.95496	      65.17486	      78.95496
      30.89844	      65.41616	      77.41936	      65.41616	      77.41936
      31.17188	      64.54234	      78.14694	      64.54234	      78.14694
      31.44531	      65.15657	      78.28587	      65.15657	      78.28587
      31.71875	      65.29916	      79.09389	      65.29916	      79.09389
      31.99219	      63.69411	      77.70089	      63.69411	      77.70089
      32.26563	      66.26073	      78.30415	      66.26073	      78.30415
      32.53906	      65.72328	      78.61493	      65.72328	      78.61493
      32.81250	      65.55144	      78.19447	      65.55144	      78.19447
      33.08594	      64.73246	      77.41570	      64.73246	      77.41570
      33.35938	      65.52585	      78.10307	      65.52585	      78.10307
      33.63281	      64.54965	      79.24379	      64.54965	      79.24379
      33.90625	      64.38512	      76.92213	      64.38512	      76.92213
      34.17969	      65.06152	      77.69723	      65.06152	      77.69723
      34.45313	      65.19679	      78.86720	      65.19679	      78.86720
      34.72656	      64.83118	      78.26759	      64.83118	      78.26759
      35.00000	      65.36132	      78.07016	      65.36132	      78.07016
      35.27344	      64.98473	      79.07561	      64.98473	      79.07561
      35.54688	      65.83662	      78.35900	      65.83662	      78.35900
      35.82031	      64.46556	      77.57658	      64.46556	      77.57658
      36.09375	      65.61725	      78.47234	      65.61725	      78.47234
      36.36719	      64.79095	      78.51621	      64.79095	      78.51621
      36.64063	      65.46004	      78.74290	      65.46004	      78.74290
      36.91406	      64.48384	      76.87825	      64.48384	      76.87825
      37.18750	      65.93900	      77.93488	      65.93900	      77.93488
      37.46094	      66.37773	      78.36996	      66.37773	      78.36996
      37.73438	      65.24798	      78.34071	      65.24798	      78.34071
      38.00781	      65.14561	      77.26215	      65.14561	      77.26215
      38.28125	      66.63367	      78.65881	      66.63367	      78.65881
      38.55469	      65.29185	      78.80871	      65.29185	      78.80871
      38.82813	      65.07980	      78.51621	      65.07980	      78.51621
      39.10156	      65.42713	      78.94398	      65.42713	      78.94398
      39.37500	      66.77991	      78.46137	      66.77991	      78.46137
      39.64844	      65.27723	      78.70267	      65.27723	      78.70267
      39.92188	      65.29185	      77.20365	      65.29185	      77.20365
      40.19531	      66.86766	      78.36631	      66.86766	      78.36631
      40.46875	      65.47466	      77.68626	      65.47466	      77.68626
      40.74219	      65.53681	      78.58933	      65.53681	      78.58933
      41.01563	      65.22970	      78.74290	      65.22970	      78.74290
      41.28906	      65.97921	      78.17619	      65.97921	      78.17619
      41.56250	      64.31200	      77.08299	      64.31200	      77.08299
      41.83594	      65.91340	      77.84714	      65.91340	      77.84714
      42.10938	      64.65933	      77.67529	      64.65933	      77.67529
      42.38281	      64.99936	      78.89280	      64.99936	      78.89280
      42.65625	      64.62643	      77.98972	      64.62643	      77.98972
      42.92969	      64.99936	      77.70820	      64.99936	      77.70820
      43.20313	      65.66478	      77.64604	      65.66478	      77.64604
      43.47656	      65.36132	      78.47600	      65.36132	      78.47600
      43.75000	      65.88049	      79.74103	      65.88049	      79.74103
      44.02344	      65.01033	      78.06651	      65.01033	      78.06651
      44.29688	      64.68493	      79.48144	      64.68493	      79.48144
      44.57031	      66.22783	      79.19991	      66.22783	      79.19991
      44.84375	      64.37050	      77.66432	      64.37050	      77.66432
      45.11719	      66.08890	      79.39735	      66.08890	      79.39735
      45.39063	      64.58256	      78.25662	      64.58256	      78.25662
      45.66406	      64.45094	      78.28953	      64.45094	      78.28953
      45.93750	      65.41616	      77.94219	      65.41616	      77.94219
      46.21094	      64.98108	      77.94951	      64.98108	      77.94951
      46.48438	      64.49480	      77.52174	      64.49480	      77.52174
      46.75781	      65.13098	      77.11224	      65.13098	      77.11224
      47.03125	      65.66478	      79.26207	      65.66478	      79.26207
      47.30469	      65.99749	      78.91839	      65.99749	      78.91839
      47.57813	      64.29372	      77.11590	      64.29372	      77.11590
      47.85156	      64.89333	      78.20909	      64.89333	      78.20909
      48.12500	      65.00667	      78.31147	      65.00667	      78.31147
      48.39844	      64.88602	      78.30050	      64.88602	      78.30050
      48.67188	      64.70321	      79.61306	      64.70321	      79.61306
      48.94531	      65.18217	      78.89280	      65.18217	      78.89280
      49.21875	      65.89512	      79.07195	      65.89512	      79.07195
      49.49219	      65.58434	      78.34803	      65.58434	      78.34803
      49.76563	      65.97921	      77.43764	      65.97921	      77.43764
      50.03906	      65.26991	      77.66432	      65.26991	      77.66432
      50.31250	      66.30827	      79.61672	      66.30827	      79.61672
      50.58594	      66.03771	      77.17075	      66.03771	      77.17075
      50.85938	      66.01943	      78.99883	      66.01943	      78.99883
      51.13281	      65.33207	      78.85258	      65.33207	      78.85258
      51.40625	      64.90430	      78.02263	      64.90430	      78.02263
      51.67969	      65.05786	      77.19268	      65.05786	      77.19268
      51.95313	      64.33028	      78.34803	      64.33028	      78.34803
      52.22656	      66.05234	      78.58568	      66.05234	      78.58568
      52.50000	      66.01212	      79.09023	      66.01212	      79.09023
      52.77344	      65.41251	      78.02628	      65.41251	      78.02628
      53.04688	      64.57159	      78.33706	      64.57159	      78.33706
      53.32031	      65.33207	      78.49793	      65.33207	      78.49793
      53.59375	      65.38326	      77.24387	      65.38326	      77.24387
      53.86719	      65.31013	      78.62955	      65.31013	      78.62955
      54.14063	      64.92624	      78.64783	      64.92624	      78.64783
      54.41406	      65.71231	      77.83251	      65.71231	      77.83251
      54.68750	      66.17299	      79.32423	      66.17299	      79.32423
      54.96094	      65.67210	      77.59120	      65.67210	      77.59120
      55.23438	      65.41616	      78.98786	      65.41616	      78.98786
      55.50781	      65.90609	      78.19447	      65.90609	      78.19447
      55.78125	      65.44907	      77.92026	      65.44907	      77.92026
      56.05469	      63.89520	      77.43399	      63.89520	      77.43399
      56.32813	      64.04875	      76.88190	      64.04875	      76.88190
      56.60156	      65.49294	      78.19813	      65.49294	      78.19813
      56.87500	      65.88416	      78.47965	      65.88416	      78.47965
      57.14844	      65.08345	      77.89832	      65.08345	      77.89832
      57.42188	      65.43079	      77.66798	      65.43079	      77.66798
      57.69531	      64.37050	      78.46503	      64.37050	      78.46503
      57.96875	      65.87318	      79.15970	      65.87318	      79.15970
      58.24219	      65.76715	      79.20723	      65.76715	      79.20723
      58.51563	      65.32476	      79.43757	      65.32476	      79.43757
      58.78906	      65.09442	      78.73924	      65.09442	      78.73924
      59.06250	      64.95914	      77.30968	      64.95914	      77.30968
      59.33594	      64.56428	      77.22559	      64.56428	      77.22559
      59.60938	      63.99391	      76.00077	      63.99391	      76.00077
      59.88281	      65.43810	      78.34803	      65.43810	      78.34803
      60.15625	      65.43810	      77.53636	      65.43810	      77.53636
      60.42969	      64.30469	      78.65881	      64.30469	      78.65881
      60.70313	      65.09077	      78.30781	      65.09077	      78.30781
      60.97656	      65.85490	      77.88370	      65.85490	      77.88370
      61.25000	      65.98653	      79.25111	      65.98653	      79.25111
      61.52344	      65.97921	      78.80505	      65.97921	      78.80505
      61.79688	      65.03957	      79.17067	      65.03957	      79.17067
      62.07031	      65.49294	      78.69171	      65.49294	      78.69171
      62.34375	      64.87139	      78.74655	      64.87139	      78.74655
      62.61719	      65.43079	      78.82333	      65.43079	      78.82333
      62.89063	      64.94086	      78.82333	      64.94086	      78.82333
      63.16406	      65.56972	      77.59486	      65.56972	      77.59486
      63.43750	      66.22417	      79.01711	      66.22417	      79.01711
      63.71094	      66.43258	      78.11404	      66.43258	      78.11404
      63.98438	      64.46922	      77.06106	      64.46922	      77.06106
      64.25781	      64.84214	      78.95496	      64.84214	      78.95496
      64.53125	      65.62091	      78.00069	      65.62091	      78.00069
      64.80469	      65.39423	      78.08479	      65.39423	      78.08479
      65.07813	      65.10173	      77.15247	      65.10173	      77.15247
      65.35156	      64.43266	      77.49249	      64.43266	      77.49249
      65.62500	      64.35222	      78.12135	      64.35222	      78.12135
      65.89844	      65.18948	      78.68074	      65.18948	      78.68074
      66.17188	      64.92624	      77.36452	      64.92624	      77.36452
      66.44531	      65.12366	      78.11769	      65.12366	      78.11769
      66.71875	      64.52406	      77.26946	      64.52406	      77.26946
      66.99219	      66.13277	      79.41563	      66.13277	      79.41563
      67.26563	      65.19679	      78.60762	      65.19679	      78.60762
      67.53906	      65.06152	      77.11956	      65.06152	      77.11956
      67.81250	      64.49847	      78.54181	      64.49847	      78.54181
      68.08594	      66.00115	      78.54546	      66.00115	      78.54546
      68.35938	      64.67030	      77.52905	      64.67030	      77.52905
      68.63281	      64.71052	      78.26759	      64.71052	      78.26759
      68.90625	      64.64837	      77.36818	      64.64837	      77.36818
      69.17969	      64.65202	      79.74468	      64.65202	      79.74468
      69.45313	      65.89146	      78.38094	      65.89146	      78.38094

Monitor Diode	1628635.39
"StandardDeviation"
  3.12500E-006	  3.88402E-002
  6.25000E-006	  3.88398E-002
  9.37500E-006	  3.88400E-002
  1.25000E-005	  3.88402E-002
  1.56250E-005	  3.88401E-002
  1.87500E-005	  3.88402E-002
  2.18750E-005	  3.88402E-002
  2.50000E-005	  3.88402E-002
  2.81250E-005	  3.88401E-002
  3.12500E-005	  3.79995E-002
  3.43750E-005	  3.83768E-002
  3.75000E-005	  3.87574E-002
  4.06250E-005	  3.86334E-002
  4.37500E-005	  3.88400E-002
  4.68750E-005	  3.88401E-002
  5.00000E-005	  2.74682E-002
  5.62500E-005	  2.72904E-002
  6.25000E-005	  2.71555E-002
  6.87500E-005	  2.71371E-002
  7.50000E-005	  2.71321E-002
  8.12500E-005	  2.72531E-002
  8.75000E-005	  2.72301E-002
  9.37500E-005	  2.73019E-002
  1.00000E-004	  1.93154E-002
  1.12500E-004	  1.93260E-002
  1.25000E-004	  1.92274E-002
  1.37500E-004	  1.93578E-002
  1.50000E-004	  1.91497E-002
  1.62500E-004	  1.91862E-002
  1.75000E-004	  1.93102E-002
  1.87500E-004	  1.92421E-002
  2.00000E-004	  1.36800E-002
  2.25000E-004	  1.36735E-002
  2.50000E-004	  1.36088E-002
  2.75000E-004	  1.36290E-002
  3.00000E-004	  1.35113E-002
  3.25000E-004	  1.35922E-002
  3.50000E-004	  1.35692E-002
  3.75000E-004	  1.35817E-002
  4.00000E-004	  9.57501E-003
  4.50000E-004	  9.59914E-003
  5.00000E-004	  9.62755E-003
  5.50000E-004	  9.61337E-003
  6.00000E-004	  9.56062E-003
  6.50000E-004	  9.61921E-003
  7.00000E-004	  9.58111E-003
  7.50000E-004	  9.57300E-003
  8.00000E-004	  6.80014E-003
  9.00000E-004	  6.79116E-003
  1.00000E-003	  6.78472E-003
  1.10000E-003	  6.78381E-003
  1.20000E-003	  6.77997E-003
  1.30000E-003	  6.77411E-003
  1.40000E-003	  6.77355E-003
  1.50000E-003	  6.76042E-003
  1.60000E-003	  4.80560E-003
  1.80000E-003	  4.80631E-003
  2.00000E-003	  4.79865E-003
  2.20000E-003	  4.77195E-003
  2.40000E-003	  4.77429E-003
  2.60000E-003	  4.76100E-003
  2.80000E-003	  4.75883E-003
  3.00000E-003	  4.75489E-003
  3.20000E-003	  3.38289E-003
  3.60000E-003	  3.38572E-003
  4.00000E-003	  3.37085E-003
  4.40000E-003	  3.36186E-003
  4.80000E-003	  3.35283E-003
  5.20000E-003	  3.34256E-003
  5.60000E-003	  3.33615E-003
  6.00000E-003	  3.33154E-003
  6.40000E-003	  2.38330E-003
  7.20000E-003	  2.37080E-003
  8.00000E-003	  2.36089E-003
  8.80000E-003	  2.35028E-003
  9.60000E-003	  2.34119E-003
  1.04000E-002	  2.33075E-003
  1.12000E-002	  2.32224E-003
  1.20000E-002	  2.31454E-003
  1.28000E-002	  1.67018E-003
  1.44000E-002	  1.65667E-003
  1.60000E-002	  1.64530E-003
  1.76000E-002	  1.63547E-003
  1.92000E-002	  1.62645E-003
  2.08000E-002	  1.61830E-003
  2.24000E-002	  1.61267E-003
  2.40000E-002	  1.60383E-003
  2.56000E-002	  1.17153E-003
  2.88000E-002	  1.16302E-003
  3.20000E-002	  1.15557E-003
  3.52000E-002	  1.14929E-003
  3.84000E-002	  1.14513E-003
  4.16000E-002	  1.14104E-003
  4.48000E-002	  1.13759E-003
  4.80000E-002	  1.13463E-003
  5.12000E-002	  8.45332E-004
  5.76000E-002	  8.42940E-004
  6.40000E-002	  8.40647E-004
  7.04000E-002	  8.39449E-004
  7.68000E-002	  8.35946E-004
  8.32000E-002	  8.35946E-004
  8.96000E-002	  8.35946E-004
  9.60000E-002	  8.35946E-004
  1.02400E-001	  6.39035E-004
  1.15200E-001	  6.39035E-004
  1.28000E-001	  6.39035E-004
  1.40800E-001	  6.39035E-004
  1.53600E-001	  6.39035E-004
  1.66400E-001	  6.39035E-004
  1.79200E-001	  6.39035E-004
  1.92000E-001	  6.39035E-004
  2.04800E-001	  4.95753E-004
  2.30400E-001	  4.95753E-004
  2.56000E-001	  4.95753E-004
  2.81600E-001	  4.95753E-004
  3.07200E-001	  4.95753E-004
  3.32800E-001	  4.95753E-004
  3.58400E-001	  4.95753E-004
  3.84000E-001	  4.95753E-004
  4.09600E-001	  3.83320E-004
  4.60800E-001	  3.83320E-004
  5.12000E-001	  3.83320E-004
  5.63200E-001	  3.83320E-004
  6.14400E-001	  3.83320E-004
  6.65600E-001	  3.83320E-004
  7.16800E-001	  3.83320E-004
  7.68000E-001	  3.83320E-004
  8.19200E-001	  2.89152E-004
  9.21600E-001	  2.89152E-004
  1.02400E+000	  2.89152E-004
  1.12640E+000	  2.89152E-004
  1.22880E+000	  2.89152E-004
  1.33120E+000	  2.89152E-004
  1.43360E+000	  2.89152E-004
  1.53600E+000	  2.89152E-004
  1.63840E+000	  2.11627E-004
  1.84320E+000	  2.11627E-004
  2.04800E+000	  2.11627E-004
  2.25280E+000	  2.11627E-004
  2.45760E+000	  2.11627E-004
  2.66240E+000	  2.11627E-004
  2.86720E+000	  2.11627E-004
  3.07200E+000	  2.11627E-004
  3.27680E+000	  1.52230E-004
  3.68640E+000	  1.52230E-004
  4.09600E+000	  1.52230E-004
  4.50560E+000	  1.52230E-004
  4.91520E+000	  1.52230E-004
  5.32480E+000	  1.52230E-004
  5.73440E+000	  1.52230E-004
  6.14400E+000	  1.52230E-004
  6.55360E+000	  1.08557E-004
  7.37280E+000	  1.08557E-004
  8.19200E+000	  1.08557E-004
  9.01120E+000	  1.08557E-004
  9.83040E+000	  1.08557E-004
  1.06496E+001	  1.08557E-004
  1.14688E+001	  1.08557E-004
  1.22880E+001	  1.08557E-004
  1.31072E+001	  7.70850E-005
  1.47456E+001	  7.70850E-005
  1.63840E+001	  7.70850E-005
  1.80224E+001	  7.70850E-005
  1.96608E+001	  7.70850E-005
  2.12992E+001	  7.70850E-005
  2.29376E+001	  7.70850E-005
  2.45760E+001	  7.70850E-005
  2.62144E+001	  5.46215E-005
  2.94912E+001	  5.46215E-005
  3.27680E+001	  5.46215E-005
  3.60448E+001	  5.46215E-005
  3.93216E+001	  5.46215E-005
  4.25984E+001	  5.46215E-005
  4.58752E+001	  5.46215E-005
  4.91520E+001	  5.46215E-005
  5.24288E+001	  3.86634E-005
  5.89824E+001	  3.86634E-005
  6.55360E+001	  3.86634E-005
  7.20896E+001	  3.86634E-005
  7.86432E+001	  3.86634E-005
  8.51968E+001	  3.86634E-005
  9.17504E+001	  3.86634E-005
  9.83040E+001	  3.86634E-005
  1.04858E+002	  2.73531E-005
  1.17965E+002	  2.73531E-005
  1.31072E+002	  2.73531E-005
  1.44179E+002	  2.73531E-005
  1.57286E+002	  2.73531E-005
  1.70394E+002	  2.73531E-005
  1.83501E+002	  2.73531E-005
  1.96608E+002	  2.73531E-005
  2.09715E+002	  1.93461E-005
  2.35930E+002	  1.93461E-005
  2.62144E+002	  1.93461E-005
  2.88358E+002	  1.93461E-005
  3.14573E+002	  1.93461E-005
  3.40787E+002	  1.93461E-005
  3.67002E+002	  1.93461E-005
  3.93216E+002	  1.93461E-005
  4.19430E+002	  1.36809E-005
  4.71859E+002	  1.36809E-005
  5.24288E+002	  1.36809E-005
  5.76717E+002	  1.36809E-005
  6.29146E+002	  1.36809E-005
  6.81574E+002	  1.36809E-005
  7.34003E+002	  1.36809E-005
  7.86432E+002	  1.36809E-005
  8.38861E+002	  9.67348E-006
  9.43718E+002	  9.67348E-006
  1.04858E+003	  9.67348E-006
  1.15343E+003	  9.67348E-006
  1.25829E+003	  9.67348E-006
  1.36315E+003	  9.67348E-006
  1.46801E+003	  9.67348E-006
  1.57286E+003	  9.67348E-006
  1.67772E+003	  6.83901E-006
  1.88744E+003	  6.83901E-006
  2.09715E+003	  6.83901E-006
  2.30687E+003	  6.83901E-006
  2.51658E+003	  6.83901E-006
  2.72630E+003	  6.83901E-006
  2.93601E+003	  6.83901E-006
  3.14573E+003	  6.83901E-006
  3.35544E+003	  4.83402E-006
  3.77487E+003	  4.83402E-006
  4.19430E+003	  4.83402E-006
  4.61373E+003	  4.83402E-006
  5.03317E+003	  4.83402E-006
  5.45260E+003	  4.83402E-006
  5.87203E+003	  4.83402E-006
  6.29146E+003	  4.83402E-006
  6.71089E+003	  3.41540E-006
  7.54975E+003	  3.41540E-006
  8.38861E+003	  3.41540E-006
  9.22747E+003	  3.41540E-006
  1.00663E+004	  3.41540E-006
  1.09052E+004	  3.41540E-006
  1.17441E+004	  3.41540E-006
