ALV-7004 or ALV-7004/FAST Data
Date :	"3/27/2010"
Time :	"3:11:58 PM"
Samplename : 	"BSA 1 g/l in YCl3 83mM (second repetition)"
SampMemo(0) : 	""
SampMemo(1) : 	""
SampMemo(2) : 	""
SampMemo(3) : 	""
SampMemo(4) : 	""
SampMemo(5) : 	""
SampMemo(6) : 	""
SampMemo(7) : 	""
SampMemo(8) : 	""
SampMemo(9) : 	""
Temperature [K] :	     295.79090
Viscosity [cp]  :	       0.94026
Refractive Index:	       1.33200
Wavelength [nm] :	     632.80000
Angle [°]       :	     110.00000
Duration [s]    :	        70
Runs            :	         1
Mode            :	"C-CH0/1+1/0"
MeanCR0 [kHz]   :	     124.64773
MeanCR1 [kHz]   :	     143.74448
MeanCR2 [kHz]   :	       0.00000
MeanCR3 [kHz]   :	       0.00000

"Correlation"
  3.12500E-006	  9.87718E-001	  1.03488E+000	 -3.00000E+000	 -3.00000E+000
  6.25000E-006	  9.43228E-001	  9.00728E-001	 -3.00000E+000	 -3.00000E+000
  9.37500E-006	  9.48386E-001	  9.49774E-001	 -3.00000E+000	 -3.00000E+000
  1.25000E-005	  9.32744E-001	  9.12095E-001	 -3.00000E+000	 -3.00000E+000
  1.56250E-005	  1.02147E+000	  1.03845E+000	 -3.00000E+000	 -3.00000E+000
  1.87500E-005	  1.02940E+000	  1.02051E+000	 -3.00000E+000	 -3.00000E+000
  2.18750E-005	  9.94788E-001	  1.00699E+000	 -3.00000E+000	 -3.00000E+000
  2.50000E-005	  9.70185E-001	  9.61094E-001	 -3.00000E+000	 -3.00000E+000
  2.81250E-005	  1.00913E+000	  1.03485E+000	 -3.00000E+000	 -3.00000E+000
  3.12500E-005	  9.93357E-001	  1.02498E+000	 -3.00000E+000	 -3.00000E+000
  3.43750E-005	  1.01173E+000	  1.01294E+000	 -3.00000E+000	 -3.00000E+000
  3.75000E-005	  9.56859E-001	  8.97344E-001	 -3.00000E+000	 -3.00000E+000
  4.06250E-005	  9.65328E-001	  9.78550E-001	 -3.00000E+000	  1.65987E+000
  4.37500E-005	  9.89225E-001	  9.92996E-001	 -3.00000E+000	  1.66458E+000
  4.68750E-005	  9.84157E-001	  9.53640E-001	 -3.00000E+000	 -7.82481E-001
  5.00000E-005	  9.92099E-001	  9.99719E-001	 -3.00000E+000	  3.16676E+000
  5.62500E-005	  9.73545E-001	  9.49523E-001	 -3.00000E+000	  1.52781E+000
  6.25000E-005	  9.68981E-001	  9.70187E-001	 -3.00000E+000	  1.58142E+000
  6.87500E-005	  9.61366E-001	  9.56359E-001	 -2.84985E+000	  1.69841E+000
  7.50000E-005	  9.98497E-001	  1.00074E+000	  2.69486E+000	  1.18182E+000
  8.12500E-005	  1.03943E+000	  1.02844E+000	  1.27659E+000	  1.24244E+000
  8.75000E-005	  9.75815E-001	  9.76163E-001	  1.39747E+000	  1.20558E+000
  9.37500E-005	  9.74090E-001	  9.60821E-001	  1.28203E+000	  1.16996E+000
  1.00000E-004	  9.82041E-001	  9.76038E-001	  1.14146E+000	  1.10061E+000
  1.12500E-004	  9.71022E-001	  9.80153E-001	  1.13573E+000	  1.11463E+000
  1.25000E-004	  9.55007E-001	  9.56200E-001	  1.05875E+000	  1.11659E+000
  1.37500E-004	  9.98822E-001	  9.88275E-001	  1.00683E+000	  1.11156E+000
  1.50000E-004	  9.77128E-001	  9.82506E-001	  1.00533E+000	  1.09137E+000
  1.62500E-004	  9.52201E-001	  9.45346E-001	  1.01411E+000	  1.08197E+000
  1.75000E-004	  9.70597E-001	  9.62751E-001	  9.68272E-001	  1.06081E+000
  1.87500E-004	  9.77383E-001	  9.69098E-001	  9.85081E-001	  1.05145E+000
  2.00000E-004	  9.81649E-001	  9.80301E-001	  9.69396E-001	  1.04747E+000
  2.25000E-004	  9.79135E-001	  9.83006E-001	  9.84150E-001	  1.02622E+000
  2.50000E-004	  9.75722E-001	  9.83219E-001	  9.66802E-001	  1.05052E+000
  2.75000E-004	  9.73516E-001	  9.65711E-001	  9.68350E-001	  1.02232E+000
  3.00000E-004	  9.60281E-001	  9.56788E-001	  9.59010E-001	  1.01345E+000
  3.25000E-004	  9.74837E-001	  9.67847E-001	  9.76857E-001	  1.00755E+000
  3.50000E-004	  9.61609E-001	  9.48208E-001	  9.70285E-001	  1.01522E+000
  3.75000E-004	  9.53007E-001	  9.42772E-001	  9.61410E-001	  9.95131E-001
  4.00000E-004	  9.67583E-001	  9.64748E-001	  9.61899E-001	  1.00470E+000
  4.50000E-004	  9.66360E-001	  9.55752E-001	  9.64608E-001	  1.00856E+000
  5.00000E-004	  9.69535E-001	  9.69263E-001	  9.66122E-001	  9.99688E-001
  5.50000E-004	  9.61757E-001	  9.54755E-001	  9.74905E-001	  1.00194E+000
  6.00000E-004	  9.57312E-001	  9.62558E-001	  9.57377E-001	  9.89983E-001
  6.50000E-004	  9.57088E-001	  9.53108E-001	  9.55283E-001	  1.00198E+000
  7.00000E-004	  9.60322E-001	  9.59701E-001	  9.64705E-001	  9.87795E-001
  7.50000E-004	  9.62803E-001	  9.62723E-001	  9.51912E-001	  9.79911E-001
  8.00000E-004	  9.55739E-001	  9.57162E-001	  9.56695E-001	  9.79458E-001
  9.00000E-004	  9.47813E-001	  9.47610E-001	  9.64886E-001	  9.77418E-001
  1.00000E-003	  9.42978E-001	  9.37514E-001	  9.49306E-001	  9.66284E-001
  1.10000E-003	  9.34037E-001	  9.28224E-001	  9.35731E-001	  9.68161E-001
  1.20000E-003	  9.34327E-001	  9.32923E-001	  9.37726E-001	  9.57013E-001
  1.30000E-003	  9.30149E-001	  9.23605E-001	  9.45606E-001	  9.58417E-001
  1.40000E-003	  9.25570E-001	  9.28114E-001	  9.33945E-001	  9.53428E-001
  1.50000E-003	  9.24802E-001	  9.24346E-001	  9.27062E-001	  9.51813E-001
  1.60000E-003	  9.19913E-001	  9.18390E-001	  9.24951E-001	  9.47917E-001
  1.80000E-003	  9.08517E-001	  9.07764E-001	  9.16995E-001	  9.34480E-001
  2.00000E-003	  9.08126E-001	  9.03744E-001	  9.04855E-001	  9.26162E-001
  2.20000E-003	  9.00518E-001	  8.91104E-001	  9.06623E-001	  9.24169E-001
  2.40000E-003	  8.98085E-001	  8.97402E-001	  8.91885E-001	  9.10230E-001
  2.60000E-003	  8.91274E-001	  8.86646E-001	  8.95543E-001	  9.10030E-001
  2.80000E-003	  8.86128E-001	  8.84630E-001	  8.90189E-001	  9.05617E-001
  3.00000E-003	  8.80679E-001	  8.75208E-001	  8.82703E-001	  8.98703E-001
  3.20000E-003	  8.73452E-001	  8.70767E-001	  8.77238E-001	  8.92165E-001
  3.60000E-003	  8.58765E-001	  8.61049E-001	  8.68052E-001	  8.75992E-001
  4.00000E-003	  8.49999E-001	  8.50252E-001	  8.53215E-001	  8.65671E-001
  4.40000E-003	  8.33756E-001	  8.33675E-001	  8.44640E-001	  8.48213E-001
  4.80000E-003	  8.26816E-001	  8.26390E-001	  8.36448E-001	  8.45423E-001
  5.20000E-003	  8.14437E-001	  8.15216E-001	  8.19311E-001	  8.30250E-001
  5.60000E-003	  8.05275E-001	  8.07414E-001	  8.13827E-001	  8.15899E-001
  6.00000E-003	  7.96170E-001	  7.94609E-001	  8.01632E-001	  8.10575E-001
  6.40000E-003	  7.84638E-001	  7.84150E-001	  7.89157E-001	  7.96371E-001
  7.20000E-003	  7.59425E-001	  7.60683E-001	  7.72441E-001	  7.76045E-001
  8.00000E-003	  7.43016E-001	  7.42883E-001	  7.52469E-001	  7.54724E-001
  8.80000E-003	  7.23236E-001	  7.21103E-001	  7.32504E-001	  7.39065E-001
  9.60000E-003	  7.07337E-001	  7.08454E-001	  7.17126E-001	  7.17554E-001
  1.04000E-002	  6.85238E-001	  6.85760E-001	  6.95249E-001	  7.00803E-001
  1.12000E-002	  6.68658E-001	  6.69206E-001	  6.77176E-001	  6.82020E-001
  1.20000E-002	  6.52607E-001	  6.51915E-001	  6.58911E-001	  6.66118E-001
  1.28000E-002	  6.35822E-001	  6.34921E-001	  6.46646E-001	  6.49176E-001
  1.44000E-002	  6.03812E-001	  6.02926E-001	  6.09955E-001	  6.16563E-001
  1.60000E-002	  5.72689E-001	  5.73428E-001	  5.82206E-001	  5.83683E-001
  1.76000E-002	  5.43472E-001	  5.44286E-001	  5.53993E-001	  5.54090E-001
  1.92000E-002	  5.17894E-001	  5.17898E-001	  5.28096E-001	  5.27156E-001
  2.08000E-002	  4.92015E-001	  4.91367E-001	  5.02836E-001	  4.98571E-001
  2.24000E-002	  4.69317E-001	  4.70269E-001	  4.74960E-001	  4.76033E-001
  2.40000E-002	  4.45730E-001	  4.44555E-001	  4.51981E-001	  4.52113E-001
  2.56000E-002	  4.23397E-001	  4.21910E-001	  4.31095E-001	  4.31354E-001
  2.88000E-002	  3.84117E-001	  3.84178E-001	  3.89332E-001	  3.88481E-001
  3.20000E-002	  3.47567E-001	  3.48297E-001	  3.54148E-001	  3.53056E-001
  3.52000E-002	  3.14907E-001	  3.15584E-001	  3.20752E-001	  3.19569E-001
  3.84000E-002	  2.83976E-001	  2.83278E-001	  2.90676E-001	  2.89283E-001
  4.16000E-002	  2.59467E-001	  2.59180E-001	  2.61524E-001	  2.62328E-001
  4.48000E-002	  2.35375E-001	  2.34190E-001	  2.38450E-001	  2.39359E-001
  4.80000E-002	  2.13255E-001	  2.13052E-001	  2.17248E-001	  2.17162E-001
  5.12000E-002	  1.95042E-001	  1.95377E-001	  1.97087E-001	  1.97130E-001
  5.76000E-002	  1.60660E-001	  1.60554E-001	  1.63881E-001	  1.63189E-001
  6.40000E-002	  1.33559E-001	  1.33730E-001	  1.35597E-001	  1.36116E-001
  7.04000E-002	  1.11660E-001	  1.11325E-001	  1.13460E-001	  1.12586E-001
  7.68000E-002	  9.34044E-002	  9.32845E-002	  9.42119E-002	  9.34015E-002
  8.32000E-002	  7.84348E-002	  7.99067E-002	  7.95489E-002	  7.83649E-002
  8.96000E-002	  6.61796E-002	  6.63343E-002	  6.85049E-002	  6.77460E-002
  9.60000E-002	  5.59428E-002	  5.57203E-002	  5.60132E-002	  5.55481E-002
  1.02400E-001	  4.71851E-002	  4.72100E-002	  4.80122E-002	  4.81113E-002
  1.15200E-001	  3.39251E-002	  3.37870E-002	  3.48576E-002	  3.40503E-002
  1.28000E-001	  2.42193E-002	  2.45149E-002	  2.43292E-002	  2.42745E-002
  1.40800E-001	  1.73988E-002	  1.75262E-002	  1.79529E-002	  1.74147E-002
  1.53600E-001	  1.23404E-002	  1.22903E-002	  1.40825E-002	  1.31005E-002
  1.66400E-001	  9.56745E-003	  9.19443E-003	  9.89523E-003	  1.05474E-002
  1.79200E-001	  6.88668E-003	  7.09654E-003	  7.19301E-003	  7.62146E-003
  1.92000E-001	  5.88242E-003	  5.68180E-003	  5.18904E-003	  5.65564E-003
  2.04800E-001	  4.48306E-003	  4.40359E-003	  4.60564E-003	  4.14620E-003
  2.30400E-001	  3.44033E-003	  3.36697E-003	  2.33611E-003	  3.11013E-003
  2.56000E-001	  2.02235E-003	  1.88154E-003	  1.34523E-003	  1.99470E-003
  2.81600E-001	  6.99948E-004	  2.02884E-004	  8.33429E-004	  1.45273E-004
  3.07200E-001	  1.01847E-003	  1.44269E-003	  1.19844E-003	  7.39083E-004
  3.32800E-001	  1.07180E-003	  8.30877E-004	  1.58474E-003	  1.02118E-003
  3.58400E-001	  1.06988E-003	  3.84966E-004	  9.26776E-004	  8.03889E-004
  3.84000E-001	  1.75279E-004	 -2.02671E-004	  7.51015E-004	  3.65688E-004
  4.09600E-001	  1.29974E-004	 -1.07648E-005	  2.50300E-004	  8.71763E-005
  4.60800E-001	 -3.15378E-004	 -2.28264E-004	 -4.58908E-005	 -2.40158E-004
  5.12000E-001	 -8.00524E-004	 -6.85325E-004	 -9.09315E-004	 -4.14934E-004
  5.63200E-001	 -1.64556E-004	 -4.08774E-005	 -2.08685E-004	 -4.90557E-004
  6.14400E-001	  2.09618E-004	  1.29477E-004	  9.89677E-004	 -7.19871E-004
  6.65600E-001	  9.98431E-005	  8.69533E-005	  7.12942E-004	  4.77589E-004
  7.16800E-001	  4.46954E-004	  9.78285E-004	  2.58485E-004	 -2.99528E-004
  7.68000E-001	  4.65154E-004	  4.68417E-004	  5.84922E-004	  3.98094E-004
  8.19200E-001	  4.75980E-004	  5.71857E-004	  4.29154E-004	  2.76553E-004
  9.21600E-001	  7.03393E-005	 -1.57080E-004	 -4.02624E-004	  1.08895E-004
  1.02400E+000	 -1.55029E-004	 -4.23191E-004	  9.80728E-005	 -5.52331E-004
  1.12640E+000	  1.35236E-004	 -1.09643E-004	  4.94866E-004	 -2.28552E-004
  1.22880E+000	  4.34061E-004	  1.61502E-004	  4.00848E-004	  1.39753E-004
  1.33120E+000	  5.25043E-004	  5.58077E-004	  7.95033E-004	 -4.70896E-005
  1.43360E+000	 -1.06522E-004	 -2.03691E-004	  1.05543E-004	 -7.30908E-004
  1.53600E+000	 -2.57175E-004	 -5.30005E-004	 -6.99017E-004	  6.16495E-005
  1.63840E+000	  2.38914E-005	 -7.62002E-005	  7.81754E-005	  1.45705E-004
  1.84320E+000	  6.08034E-004	  8.29316E-004	  4.82868E-004	  2.05730E-004
  2.04800E+000	  8.71511E-004	  7.38574E-004	  9.28947E-004	  9.43090E-004
  2.25280E+000	 -2.06044E-004	 -3.19251E-004	 -5.44815E-004	  1.01178E-004
  2.45760E+000	 -5.31757E-004	 -6.25781E-004	 -4.91172E-004	 -6.60760E-004
  2.66240E+000	  3.11746E-004	  4.84806E-004	  1.74955E-004	  5.08827E-004
  2.86720E+000	 -2.56500E-004	 -1.61631E-004	 -1.91076E-004	  7.79003E-006
  3.07200E+000	 -2.89363E-004	 -2.68682E-004	 -2.70220E-004	 -1.02334E-004
  3.27680E+000	  4.14577E-004	  5.40544E-004	  2.84765E-004	  3.44503E-004
  3.68640E+000	  2.66367E-005	 -2.91234E-005	  4.38437E-005	 -3.93475E-005
  4.09600E+000	  5.19055E-004	  6.25282E-004	  6.55859E-004	  5.43856E-004
  4.50560E+000	 -5.17025E-004	 -5.69787E-004	 -3.76662E-004	 -4.65340E-004
  4.91520E+000	  2.08471E-004	  9.50019E-005	  1.67811E-004	  1.64588E-004
  5.32480E+000	  4.33505E-005	 -1.59531E-005	  1.88490E-004	 -1.12469E-004
  5.73440E+000	  1.95266E-004	  2.89290E-004	  3.08452E-004	 -1.12075E-004
  6.14400E+000	  1.04949E-004	  1.53399E-004	 -1.95804E-005	  1.58778E-004
  6.55360E+000	 -5.00965E-005	  1.14020E-004	  2.69757E-005	 -6.31822E-005
  7.37280E+000	  4.84881E-005	  6.28548E-005	 -1.27197E-004	  9.05605E-005
  8.19200E+000	  1.90625E-005	 -6.39337E-005	  1.15458E-004	  1.84589E-005
  9.01120E+000	 -2.98630E-004	 -2.06692E-004	 -2.77032E-004	 -1.57644E-004
  9.83040E+000	  1.15149E-004	  8.09491E-005	  2.76487E-004	 -9.84522E-005
  1.06496E+001	 -1.63623E-004	 -3.33221E-004	 -1.85223E-004	 -7.40478E-005
  1.14688E+001	 -8.92382E-005	  1.58214E-005	 -2.24718E-004	 -1.45708E-005
  1.22880E+001	 -1.79204E-004	 -9.77570E-005	 -1.35878E-004	 -1.33997E-004
  1.31072E+001	 -2.04633E-004	 -9.81445E-005	 -2.30261E-004	 -1.53592E-004
  1.47456E+001	  2.05544E-004	  2.76387E-004	  1.85994E-004	  2.42881E-004
  1.63840E+001	  1.12337E-004	  6.39582E-005	  6.00592E-005	  1.30525E-004
  1.80224E+001	  2.81819E-005	  8.38358E-006	 -6.45115E-005	  1.88602E-004
  1.96608E+001	  2.40294E-005	  1.71903E-004	  8.46393E-006	  7.06977E-005
  2.12992E+001	  1.97777E-006	  1.86353E-005	 -2.37311E-005	  5.06001E-005
  2.29376E+001	 -8.24367E-005	 -1.17365E-004	 -1.07418E-004	 -6.29490E-005
  2.45760E+001	 -4.89580E-005	 -6.86505E-007	  2.16156E-004	 -2.81380E-004
  2.62144E+001	  4.41548E-005	  6.55678E-005	  3.11699E-005	  3.88771E-005
  2.94912E+001	 -1.00600E-004	 -8.55611E-005	 -1.36151E-004	 -3.72929E-005
  3.27680E+001	  1.07847E-005	  5.44135E-006	  1.85042E-004	 -1.25895E-004
  3.60448E+001	 -9.07579E-005	 -1.22123E-004	 -1.62000E-004	 -4.59643E-005
  3.93216E+001	  2.76789E-005	  5.84840E-005	  6.92490E-005	 -2.98991E-005
  4.25984E+001	  7.46979E-005	  4.86619E-005	  1.16051E-004	  3.58138E-005
  4.58752E+001	  4.40128E-005	  9.96990E-005	  1.26723E-004	  7.77715E-006
  4.91520E+001	  4.52201E-005	  1.05985E-004	  1.75823E-005	 -3.91294E-005
  5.24288E+001	  3.14275E-006	  3.12531E-005	 -1.53451E-005	 -2.97768E-006
  5.89824E+001	  2.24591E-005	  2.80862E-005	  9.45394E-005	 -4.61815E-005
  6.55360E+001	  2.13964E-005	  3.53919E-005	 -1.95445E-005	  1.64683E-006
  7.20896E+001	 -4.54538E-005	 -7.03401E-005	 -7.70892E-006	  8.27141E-006
  7.86432E+001	 -7.45037E-005	 -9.31867E-005	 -8.25649E-005	 -8.67037E-005
  8.51968E+001	 -2.86514E-005	 -9.76074E-006	 -9.36666E-005	  4.25754E-005
  9.17504E+001	  2.59209E-005	  3.73453E-007	  4.38867E-005	  3.23218E-006
  9.83040E+001	 -4.23401E-005	 -3.79564E-005	 -1.52077E-005	 -1.01980E-004
  1.04858E+002	 -5.85940E-005	 -2.19655E-005	 -5.00219E-005	 -4.43508E-005
  1.17965E+002	  9.03395E-006	 -5.56701E-006	  2.67221E-005	  3.92473E-005
  1.31072E+002	  7.78913E-006	  4.35755E-005	 -1.04194E-005	  3.14347E-005
  1.44179E+002	 -2.51483E-005	 -4.10119E-005	  1.70365E-006	  1.02896E-005
  1.57286E+002	 -4.55695E-006	  3.59675E-005	 -9.70107E-006	  2.32103E-005
  1.70394E+002	  2.75671E-005	  8.01413E-006	 -3.04737E-005	  4.34010E-005
  1.83501E+002	  4.02051E-005	  4.00584E-005	  7.84381E-005	  1.34100E-005
  1.96608E+002	 -5.84238E-005	 -7.18627E-005	 -4.42232E-005	 -2.00096E-005
  2.09715E+002	 -2.51006E-005	 -3.15219E-005	 -4.09492E-005	 -5.32299E-006
  2.35930E+002	  3.33664E-005	  4.21764E-005	  1.54231E-005	  4.29892E-005
  2.62144E+002	 -1.49689E-006	  1.60708E-006	  4.82989E-005	 -2.47671E-005
  2.88358E+002	 -1.59852E-005	 -1.16719E-005	 -2.84247E-005	 -7.34536E-006
  3.14573E+002	 -2.25785E-005	  1.06986E-005	 -2.09295E-005	 -4.30683E-006
  3.40787E+002	  4.14441E-005	  4.05733E-005	  4.56322E-005	  2.39725E-005
  3.67002E+002	  4.48397E-005	  2.84231E-005	  8.17041E-005	  1.96528E-005
  3.93216E+002	 -3.67841E-005	 -2.50702E-005	 -4.96773E-005	 -2.10490E-005
  4.19430E+002	 -5.52081E-005	 -5.88977E-005	 -7.40296E-005	 -3.85424E-005
  4.71859E+002	 -2.71108E-005	  3.31503E-007	 -3.44021E-005	 -2.11483E-005
  5.24288E+002	  3.10684E-005	  1.67181E-005	  2.04451E-005	  4.56981E-005
  5.76717E+002	 -1.83742E-005	 -1.70935E-005	 -1.23709E-005	 -7.00518E-006
  6.29146E+002	  8.98392E-006	  4.72146E-006	  2.11572E-005	  1.45813E-005
  6.81574E+002	 -1.87896E-005	 -3.67876E-005	 -1.23835E-005	 -2.17065E-005
  7.34003E+002	 -2.64723E-005	 -4.19357E-005	 -4.50708E-005	 -2.12437E-005
  7.86432E+002	  5.46112E-006	  1.98535E-005	  3.81460E-006	 -8.10232E-006
  8.38861E+002	  2.09999E-005	  2.80640E-005	  2.84720E-005	  1.05991E-005
  9.43718E+002	 -1.11462E-005	 -6.44512E-006	 -6.86752E-006	 -1.09055E-005
  1.04858E+003	  1.12976E-005	  1.40270E-005	  5.98083E-006	  1.70854E-005
  1.15343E+003	 -9.13902E-006	 -1.42254E-005	  2.09714E-005	 -4.31966E-005
  1.25829E+003	 -1.87328E-005	 -2.67084E-005	 -1.66100E-005	 -3.22614E-006
  1.36315E+003	  2.85182E-005	  1.94848E-005	  3.47769E-005	  3.00401E-005
  1.46801E+003	 -2.71372E-005	 -1.97812E-005	 -4.31391E-005	 -2.46142E-005
  1.57286E+003	 -2.04777E-005	 -2.72778E-005	 -1.41609E-005	 -2.26090E-005
  1.67772E+003	 -1.26115E-005	 -2.08882E-005	 -1.93200E-005	 -1.14063E-005
  1.88744E+003	 -3.59928E-006	 -6.61326E-006	 -3.50532E-006	 -6.41893E-006
  2.09715E+003	 -1.12767E-006	  9.59692E-007	  2.33137E-006	 -7.86851E-006
  2.30687E+003	  5.09855E-007	 -3.42625E-006	  4.18113E-006	 -9.64547E-006
  2.51658E+003	  8.35248E-006	  1.52208E-005	  1.27244E-005	 -8.12536E-007
  2.72630E+003	 -1.64982E-006	 -4.71000E-006	 -8.46068E-006	 -3.01230E-006
  2.93601E+003	  5.23371E-006	  1.58827E-005	  3.40184E-006	  5.99039E-006
  3.14573E+003	  9.20001E-007	  7.60126E-006	  2.40487E-006	 -1.15998E-005
  3.35544E+003	 -1.03232E-005	 -1.05917E-005	 -6.97015E-006	 -1.30891E-005
  3.77487E+003	  2.18691E-005	  1.90643E-005	  2.23970E-005	  1.63975E-005
  4.19430E+003	 -1.10257E-005	 -1.80809E-005	 -7.80952E-006	 -9.91752E-006
  4.61373E+003	  3.61359E-006	  8.78478E-006	  7.42098E-006	  1.30454E-005
  5.03317E+003	  2.20072E-006	  6.76697E-006	  5.37413E-006	 -7.20388E-009
  5.45260E+003	 -2.58596E-006	  2.72056E-007	 -5.28476E-006	 -1.07649E-006
  5.87203E+003	  5.36378E-006	 -4.80901E-007	 -1.66275E-006	  6.45997E-006
  6.29146E+003	  7.05061E-006	  7.58401E-006	  9.73163E-006	  1.07366E-005
  6.71089E+003	  8.49019E-006	  1.21957E-005	  2.06283E-006	  1.21966E-005
  7.54975E+003	  7.57068E-006	  6.45967E-008	  1.67232E-005	  2.64928E-006
  8.38861E+003	  2.98966E-006	  1.92436E-007	  2.84519E-006	 -4.62824E-006
  9.22747E+003	 -2.21721E-006	 -1.53536E-006	 -8.99261E-006	 -2.33133E-006
  1.00663E+004	  6.93261E-007	  5.62072E-008	 -1.05592E-006	 -1.93503E-006
  1.09052E+004	 -3.47960E-006	 -4.01813E-006	 -2.30718E-006	 -3.98691E-006
  1.17441E+004	  5.75829E-006	  8.04321E-006	  7.04218E-006	  5.81660E-006

"Count Rate"
       0.27344	     124.22197	     145.14987	     124.22197	     145.14987
       0.54688	     125.79778	     143.72032	     125.79778	     143.72032
       0.82031	     123.66989	     142.52109	     123.66989	     142.52109
       1.09375	     127.21638	     145.81895	     127.21638	     145.81895
       1.36719	     125.69540	     142.36388	     125.69540	     142.36388
       1.64063	     124.54006	     142.49550	     124.54006	     142.49550
       1.91406	     124.59490	     142.99640	     124.59490	     142.99640
       2.18750	     125.59669	     145.07675	     125.59669	     145.07675
       2.46094	     126.55827	     145.71294	     126.55827	     145.71294
       2.73438	     126.47417	     146.45148	     126.47417	     146.45148
       3.00781	     126.37546	     145.06578	     126.37546	     145.06578
       3.28125	     122.67175	     142.44066	     122.67175	     142.44066
       3.55469	     123.54192	     142.96349	     123.54192	     142.96349
       3.82813	     123.66624	     142.36388	     123.66624	     142.36388
       4.10156	     125.52357	     144.44058	     125.52357	     144.44058
       4.37500	     121.87836	     142.78799	     121.87836	     142.78799
       4.64844	     122.55842	     141.87030	     122.55842	     141.87030
       4.92188	     124.34994	     142.74413	     124.34994	     142.74413
       5.19531	     125.65519	     143.14264	     125.65519	     143.14264
       5.46875	     124.34628	     142.72585	     124.34628	     142.72585
       5.74219	     125.37732	     142.51744	     125.37732	     142.51744
       6.01563	     123.43224	     143.82634	     123.43224	     143.82634
       6.28906	     125.77584	     146.32716	     125.77584	     146.32716
       6.56250	     123.77958	     143.24136	     123.77958	     143.24136
       6.83594	     122.22570	     141.77524	     122.22570	     141.77524
       7.10938	     125.17258	     143.63623	     125.17258	     143.63623
       7.38281	     124.52909	     143.75322	     124.52909	     143.75322
       7.65625	     124.19273	     143.02565	     124.19273	     143.02565
       7.92969	     125.05923	     143.30351	     125.05923	     143.30351
       8.20313	     125.42120	     145.08772	     125.42120	     145.08772
       8.47656	     123.36277	     142.83919	     123.36277	     142.83919
       8.75000	     124.80330	     147.27046	     124.80330	     147.27046
       9.02344	     122.26592	     140.91603	     122.26592	     140.91603
       9.29688	     125.34441	     142.53937	     125.34441	     142.53937
       9.57031	     122.00999	     140.36031	     122.00999	     140.36031
       9.84375	     124.20004	     144.26874	     124.20004	     144.26874
      10.11719	     125.46141	     145.27785	     125.46141	     145.27785
      10.39063	     124.58759	     143.44244	     124.58759	     143.44244
      10.66406	     125.47604	     146.11145	     125.47604	     146.11145
      10.93750	     122.99715	     143.65085	     122.99715	     143.65085
      11.21094	     125.49798	     144.86835	     125.49798	     144.86835
      11.48438	     127.26756	     145.27054	     127.26756	     145.27054
      11.75781	     124.84718	     143.72763	     124.84718	     143.72763
      12.03125	     123.83076	     142.23225	     123.83076	     142.23225
      12.30469	     124.01723	     140.75151	     124.01723	     140.75151
      12.57813	     125.15064	     142.24689	     125.15064	     142.24689
      12.85156	     123.96239	     144.05302	     123.96239	     144.05302
      13.12500	     122.77779	     140.30180	     122.77779	     140.30180
      13.39844	     123.45418	     143.05124	     123.45418	     143.05124
      13.67188	     124.56565	     140.97820	     124.56565	     140.97820
      13.94531	     123.68086	     142.58690	     123.68086	     142.58690
      14.21875	     125.40657	     145.57765	     125.40657	     145.57765
      14.49219	     123.68817	     143.88120	     123.68817	     143.88120
      14.76563	     127.04088	     146.50266	     127.04088	     146.50266
      15.03906	     123.23115	     142.38947	     123.23115	     142.38947
      15.31250	     125.39194	     146.64160	     125.39194	     146.64160
      15.58594	     124.55103	     144.31262	     124.55103	     144.31262
      15.85938	     125.42850	     143.76785	     125.42850	     143.76785
      16.13281	     124.17810	     144.15175	     124.17810	     144.15175
      16.40625	     123.99895	     144.65263	     123.99895	     144.65263
      16.67969	     125.85262	     146.10048	     125.85262	     146.10048
      16.95313	     124.87643	     143.39491	     124.87643	     143.39491
      17.22656	     123.70280	     142.25053	     123.70280	     142.25053
      17.50000	     124.83255	     142.72585	     124.83255	     142.72585
      17.77344	     125.90015	     145.54474	     125.90015	     145.54474
      18.04688	     121.76503	     142.39679	     121.76503	     142.39679
      18.32031	     122.71198	     142.25784	     122.71198	     142.25784
      18.59375	     123.97335	     142.20300	     123.97335	     142.20300
      18.86719	     123.51633	     141.55952	     123.51633	     141.55952
      19.14063	     122.48895	     142.14085	     122.48895	     142.14085
      19.41406	     124.54006	     144.46252	     124.54006	     144.46252
      19.68750	     124.36456	     145.16084	     124.36456	     145.16084
      19.96094	     122.16721	     141.26703	     122.16721	     141.26703
      20.23438	     124.38650	     143.50826	     124.38650	     143.50826
      20.50781	     127.66974	     145.42044	     127.66974	     145.42044
      20.78125	     127.18713	     146.51363	     127.18713	     146.51363
      21.05469	     123.84539	     144.04205	     123.84539	     144.04205
      21.32813	     126.17071	     146.01274	     126.17071	     146.01274
      21.60156	     124.17078	     143.57773	     124.17078	     143.57773
      21.87500	     122.89844	     140.26158	     122.89844	     140.26158
      22.14844	     126.12318	     145.73486	     126.12318	     145.73486
      22.42188	     122.89478	     141.90320	     122.89478	     141.90320
      22.69531	     125.57110	     145.33269	     125.57110	     145.33269
      22.96875	     123.24943	     142.92328	     123.24943	     142.92328
      23.24219	     125.40657	     145.68002	     125.40657	     145.68002
      23.51563	     128.62766	     147.25583	     128.62766	     147.25583
      23.78906	     126.49611	     145.24493	     126.49611	     145.24493
      24.06250	     124.29510	     142.85014	     124.29510	     142.85014
      24.33594	     124.36822	     144.41499	     124.36822	     144.41499
      24.60938	     125.69907	     142.97446	     125.69907	     142.97446
      24.88281	     125.23107	     143.33643	     125.23107	     143.33643
      25.15625	     123.18728	     141.70576	     123.18728	     141.70576
      25.42969	     124.22929	     143.19017	     124.22929	     143.19017
      25.70313	     123.70645	     144.60146	     123.70645	     144.60146
      25.97656	     125.20183	     144.31993	     125.20183	     144.31993
      26.25000	     124.85083	     143.04393	     124.85083	     143.04393
      26.52344	     124.93127	     144.14809	     124.93127	     144.14809
      26.79688	     123.77958	     141.86299	     123.77958	     141.86299
      27.07031	     126.55827	     145.07310	     126.55827	     145.07310
      27.34375	     123.02641	     143.08049	     123.02641	     143.08049
      27.61719	     126.28770	     146.57579	     126.28770	     146.57579
      27.89063	     125.84165	     144.64532	     125.84165	     144.64532
      28.16406	     125.12505	     142.79897	     125.12505	     142.79897
      28.43750	     127.27853	     146.91946	     127.27853	     146.91946
      28.71094	     123.55289	     141.07326	     123.55289	     141.07326
      28.98438	     125.98790	     145.24860	     125.98790	     145.24860
      29.25781	     127.09572	     145.85551	     127.09572	     145.85551
      29.53125	     125.64056	     145.32903	     125.64056	     145.32903
      29.80469	     124.96052	     145.25591	     124.96052	     145.25591
      30.07813	     124.47059	     142.74046	     124.47059	     142.74046
      30.35156	     123.57117	     140.92700	     123.57117	     140.92700
      30.62500	     125.27495	     142.59422	     125.27495	     142.59422
      30.89844	     125.87456	     143.89948	     125.87456	     143.89948
      31.17188	     127.94029	     145.47162	     127.94029	     145.47162
      31.44531	     126.55460	     143.86656	     126.55460	     143.86656
      31.71875	     125.02633	     141.84836	     125.02633	     141.84836
      31.99219	     122.20742	     141.06960	     122.20742	     141.06960
      32.26563	     125.04095	     144.22853	     125.04095	     144.22853
      32.53906	     125.36269	     144.64168	     125.36269	     144.64168
      32.81250	     124.91664	     142.42604	     124.91664	     142.42604
      33.08594	     124.58759	     142.49550	     124.58759	     142.49550
      33.35938	     126.18533	     144.91223	     126.18533	     144.91223
      33.63281	     124.02820	     144.41864	     124.02820	     144.41864
      33.90625	     124.87277	     145.32172	     124.87277	     145.32172
      34.17969	     125.15795	     144.73672	     125.15795	     144.73672
      34.45313	     123.28965	     143.92140	     123.28965	     143.92140
      34.72656	     126.99700	     145.39119	     126.99700	     145.39119
      35.00000	     125.72466	     146.15898	     125.72466	     146.15898
      35.27344	     126.82151	     145.43506	     126.82151	     145.43506
      35.54688	     122.45238	     141.59975	     122.45238	     141.59975
      35.82031	     124.99708	     143.57042	     124.99708	     143.57042
      36.09375	     122.73391	     143.65451	     122.73391	     143.65451
      36.36719	     124.13422	     145.29613	     124.13422	     145.29613
      36.64063	     124.43037	     143.86292	     124.43037	     143.86292
      36.91406	     125.07021	     142.87209	     125.07021	     142.87209
      37.18750	     125.24935	     144.26874	     125.24935	     144.26874
      37.46094	     125.61497	     144.04572	     125.61497	     144.04572
      37.73438	     125.19086	     144.26143	     125.19086	     144.26143
      38.00781	     123.88195	     142.65637	     123.88195	     142.65637
      38.28125	     123.65527	     143.37663	     123.65527	     143.37663
      38.55469	     125.04461	     143.96893	     125.04461	     143.96893
      38.82813	     123.77226	     141.35112	     123.77226	     141.35112
      39.10156	     124.10132	     144.33455	     124.10132	     144.33455
      39.37500	     127.03722	     145.86649	     127.03722	     145.86649
      39.64844	     125.24935	     146.36008	     125.24935	     146.36008
      39.92188	     124.90933	     146.64160	     124.90933	     146.64160
      40.19531	     124.13422	     146.22113	     124.13422	     146.22113
      40.46875	     125.01170	     143.08049	     125.01170	     143.08049
      40.74219	     123.36643	     144.18465	     123.36643	     144.18465
      41.01563	     122.14893	     141.69479	     122.14893	     141.69479
      41.28906	     124.45596	     144.50639	     124.45596	     144.50639
      41.56250	     124.52177	     144.37111	     124.52177	     144.37111
      41.83594	     123.44686	     141.84105	     123.44686	     141.84105
      42.10938	     125.42850	     145.78239	     125.42850	     145.78239
      42.38281	     125.11407	     144.77695	     125.11407	     144.77695
      42.65625	     125.02633	     144.38208	     125.02633	     144.38208
      42.92969	     124.90933	     145.11331	     124.90933	     145.11331
      43.20313	     125.01170	     141.76060	     125.01170	     141.76060
      43.47656	     124.81427	     142.34193	     124.81427	     142.34193
      43.75000	     124.76308	     143.60698	     124.76308	     143.60698
      44.02344	     123.32256	     141.36940	     123.32256	     141.36940
      44.29688	     124.55468	     143.61795	     124.55468	     143.61795
      44.57031	     124.33531	     144.20659	     124.33531	     144.20659
      44.84375	     123.19459	     143.38760	     123.19459	     143.38760
      45.11719	     125.33710	     145.14256	     125.33710	     145.14256
      45.39063	     124.34628	     142.41872	     124.34628	     142.41872
      45.66406	     124.63512	     141.87030	     124.63512	     141.87030
      45.93750	     124.61318	     143.32910	     124.61318	     143.32910
      46.21094	     124.20734	     145.10966	     124.20734	     145.10966
      46.48438	     125.21645	     143.85194	     125.21645	     143.85194
      46.75781	     124.14885	     143.77881	     124.14885	     143.77881
      47.03125	     126.22921	     142.41872	     126.22921	     142.41872
      47.30469	     124.44500	     143.69472	     124.44500	     143.69472
      47.57813	     125.28957	     143.48633	     125.28957	     143.48633
      47.85156	     122.43045	     143.82269	     122.43045	     143.82269
      48.12500	     124.91664	     145.30710	     124.91664	     145.30710
      48.39844	     125.51260	     143.78613	     125.51260	     143.78613
      48.67188	     124.03916	     142.06041	     124.03916	     142.06041
      48.94531	     124.82890	     144.71844	     124.82890	     144.71844
      49.21875	     124.93858	     143.51192	     124.93858	     143.51192
      49.49219	     124.30606	     142.29807	     124.30606	     142.29807
      49.76563	     126.18168	     145.10236	     126.18168	     145.10236
      50.03906	     124.67899	     142.71852	     124.67899	     142.71852
      50.31250	     124.81427	     141.92879	     124.81427	     141.92879
      50.58594	     125.27860	     144.67458	     125.27860	     144.67458
      50.85938	     122.70100	     141.08788	     122.70100	     141.08788
      51.13281	     126.32793	     146.15898	     126.32793	     146.15898
      51.40625	     122.92038	     142.04213	     122.92038	     142.04213
      51.67969	     124.79964	     145.99811	     124.79964	     145.99811
      51.95313	     123.20556	     143.17555	     123.20556	     143.17555
      52.22656	     123.44321	     144.42961	     123.44321	     144.42961
      52.50000	     120.85464	     140.61989	     120.85464	     140.61989
      52.77344	     124.89105	     144.72211	     124.89105	     144.72211
      53.04688	     124.06110	     142.53206	     124.06110	     142.53206
      53.32031	     124.73018	     143.17189	     124.73018	     143.17189
      53.59375	     122.53648	     141.17928	     122.53648	     141.17928
      53.86719	     122.98985	     141.47177	     122.98985	     141.47177
      54.14063	     124.69727	     144.69286	     124.69727	     144.69286
      54.41406	     124.43403	     143.87753	     124.43403	     143.87753
      54.68750	     121.42135	     140.49557	     121.42135	     140.49557
      54.96094	     123.62967	     143.18286	     123.62967	     143.18286
      55.23438	     127.21272	     145.21568	     127.21272	     145.21568
      55.50781	     124.11960	     142.87939	     124.11960	     142.87939
      55.78125	     124.11229	     145.24493	     124.11229	     145.24493
      56.05469	     124.14153	     142.04945	     124.14153	     142.04945
      56.32813	     123.64796	     142.86842	     123.64796	     142.86842
      56.60156	     125.28226	     143.29620	     125.28226	     143.29620
      56.87500	     124.40112	     143.70935	     124.40112	     143.70935
      57.14844	     125.04095	     144.35649	     125.04095	     144.35649
      57.42188	     122.60960	     142.55034	     122.60960	     142.55034
      57.69531	     125.44678	     144.19196	     125.44678	     144.19196
      57.96875	     123.47246	     141.00745	     123.47246	     141.00745
      58.24219	     122.86188	     142.14085	     122.86188	     142.14085
      58.51563	     126.01715	     145.12794	     126.01715	     145.12794
      58.78906	     124.49984	     143.39127	     124.49984	     143.39127
      59.06250	     125.98790	     146.13339	     125.98790	     146.13339
      59.33594	     122.23667	     141.00378	     122.23667	     141.00378
      59.60938	     123.38471	     143.19017	     123.38471	     143.19017
      59.88281	     124.13422	     142.38947	     124.13422	     142.38947
      60.15625	     123.87463	     144.60876	     123.87463	     144.60876
      60.42969	     123.82710	     142.68929	     123.82710	     142.68929
      60.70313	     124.98611	     144.98535	     124.98611	     144.98535
      60.97656	     123.23481	     142.60884	     123.23481	     142.60884
      61.25000	     124.17810	     142.76971	     124.17810	     142.76971
      61.52344	     123.47977	     142.62347	     123.47977	     142.62347
      61.79688	     125.14698	     142.75143	     125.14698	     142.75143
      62.07031	     125.56379	     143.10974	     125.56379	     143.10974
      62.34375	     123.72839	     143.69838	     123.72839	     143.69838
      62.61719	     123.12512	     140.55774	     123.12512	     140.55774
      62.89063	     125.53088	     142.49916	     125.53088	     142.49916
      63.16406	     124.36822	     142.67831	     124.37187	     142.67831
      63.43750	     123.77958	     144.40036	     123.77958	     144.40036
      63.71094	     124.66802	     142.40044	     124.66802	     142.40044
      63.98438	     126.40836	     144.13712	     126.40836	     144.13712
      64.25781	     124.07207	     143.82634	     124.07207	     143.82634
      64.53125	     123.71011	     141.83374	     123.71011	     141.83374
      64.80469	     124.06476	     144.74039	     124.06476	     144.74039
      65.07813	     125.36269	     146.57213	     125.36269	     146.57213
      65.35156	     124.36091	     143.55579	     124.36091	     143.55579
      65.62500	     125.39926	     144.00185	     125.39926	     144.00185
      65.89844	     124.04282	     144.14809	     124.04282	     144.14809
      66.17188	     125.81972	     144.44424	     125.81972	     144.44424
      66.44531	     124.14153	     142.56497	     124.14153	     142.56497
      66.71875	     126.66429	     144.69652	     126.66429	     144.69652
      66.99219	     123.76861	     143.49728	     123.76861	     143.49728
      67.26563	     126.65332	     146.27232	     126.65332	     146.27232
      67.53906	     125.12139	     145.82262	     125.12139	     145.82262
      67.81250	     124.78868	     144.44424	     124.78868	     144.44424
      68.08594	     125.60400	     143.16823	     125.60400	     143.16823
      68.35938	     125.08483	     143.57042	     125.08483	     143.57042
      68.63281	     127.36628	     145.06944	     127.36628	     145.06944
      68.90625	     124.86180	     144.33821	     124.86180	     144.33821
      69.17969	     124.19273	     143.66913	     124.19273	     143.66913
      69.45313	     123.69548	     143.04027	     123.69548	     143.04027

Monitor Diode	1632457.75
"StandardDeviation"
  3.12500E-006	  2.01538E-002
  6.25000E-006	  2.01537E-002
  9.37500E-006	  2.01537E-002
  1.25000E-005	  2.01536E-002
  1.56250E-005	  2.01537E-002
  1.87500E-005	  2.01537E-002
  2.18750E-005	  2.01538E-002
  2.50000E-005	  2.01537E-002
  2.81250E-005	  2.01537E-002
  3.12500E-005	  2.00952E-002
  3.43750E-005	  2.01114E-002
  3.75000E-005	  1.99488E-002
  4.06250E-005	  2.00357E-002
  4.37500E-005	  2.01002E-002
  4.68750E-005	  2.01483E-002
  5.00000E-005	  1.42067E-002
  5.62500E-005	  1.41827E-002
  6.25000E-005	  1.41590E-002
  6.87500E-005	  1.40556E-002
  7.50000E-005	  1.41740E-002
  8.12500E-005	  1.42566E-002
  8.75000E-005	  1.40892E-002
  9.37500E-005	  1.39966E-002
  1.00000E-004	  9.92396E-003
  1.12500E-004	  9.94251E-003
  1.25000E-004	  9.90661E-003
  1.37500E-004	  9.95397E-003
  1.50000E-004	  9.92591E-003
  1.62500E-004	  9.87559E-003
  1.75000E-004	  9.92363E-003
  1.87500E-004	  9.90628E-003
  2.00000E-004	  7.02625E-003
  2.25000E-004	  7.03669E-003
  2.50000E-004	  7.02344E-003
  2.75000E-004	  7.02098E-003
  3.00000E-004	  7.01306E-003
  3.25000E-004	  7.02655E-003
  3.50000E-004	  7.03165E-003
  3.75000E-004	  7.00852E-003
  4.00000E-004	  4.98312E-003
  4.50000E-004	  5.00072E-003
  5.00000E-004	  4.98509E-003
  5.50000E-004	  4.97673E-003
  6.00000E-004	  4.98148E-003
  6.50000E-004	  4.97700E-003
  7.00000E-004	  4.97988E-003
  7.50000E-004	  4.97298E-003
  8.00000E-004	  3.54187E-003
  9.00000E-004	  3.54266E-003
  1.00000E-003	  3.53913E-003
  1.10000E-003	  3.53121E-003
  1.20000E-003	  3.53614E-003
  1.30000E-003	  3.53327E-003
  1.40000E-003	  3.53232E-003
  1.50000E-003	  3.53038E-003
  1.60000E-003	  2.52608E-003
  1.80000E-003	  2.52290E-003
  2.00000E-003	  2.52409E-003
  2.20000E-003	  2.51992E-003
  2.40000E-003	  2.51916E-003
  2.60000E-003	  2.51790E-003
  2.80000E-003	  2.51621E-003
  3.00000E-003	  2.51518E-003
  3.20000E-003	  1.81919E-003
  3.60000E-003	  1.81551E-003
  4.00000E-003	  1.81367E-003
  4.40000E-003	  1.80778E-003
  4.80000E-003	  1.80592E-003
  5.20000E-003	  1.80463E-003
  5.60000E-003	  1.80029E-003
  6.00000E-003	  1.79856E-003
  6.40000E-003	  1.32565E-003
  7.20000E-003	  1.32102E-003
  8.00000E-003	  1.31700E-003
  8.80000E-003	  1.31195E-003
  9.60000E-003	  1.30867E-003
  1.04000E-002	  1.30394E-003
  1.12000E-002	  1.30003E-003
  1.20000E-002	  1.29627E-003
  1.28000E-002	  9.83446E-004
  1.44000E-002	  9.76512E-004
  1.60000E-002	  9.69674E-004
  1.76000E-002	  9.63755E-004
  1.92000E-002	  9.57989E-004
  2.08000E-002	  9.52696E-004
  2.24000E-002	  9.47480E-004
  2.40000E-002	  9.42181E-004
  2.56000E-002	  7.39041E-004
  2.88000E-002	  7.30380E-004
  3.20000E-002	  7.22309E-004
  3.52000E-002	  7.15152E-004
  3.84000E-002	  7.08629E-004
  4.16000E-002	  7.02826E-004
  4.48000E-002	  6.97274E-004
  4.80000E-002	  6.92235E-004
  5.12000E-002	  5.62369E-004
  5.76000E-002	  5.53660E-004
  6.40000E-002	  5.46901E-004
  7.04000E-002	  5.41014E-004
  7.68000E-002	  5.36629E-004
  8.32000E-002	  5.32768E-004
  8.96000E-002	  5.29409E-004
  9.60000E-002	  5.26915E-004
  1.02400E-001	  4.42724E-004
  1.15200E-001	  4.38554E-004
  1.28000E-001	  4.35674E-004
  1.40800E-001	  4.33416E-004
  1.53600E-001	  4.32080E-004
  1.66400E-001	  4.31169E-004
  1.79200E-001	  4.30493E-004
  1.92000E-001	  4.30254E-004
  2.04800E-001	  3.69699E-004
  2.30400E-001	  3.68194E-004
  2.56000E-001	  3.68194E-004
  2.81600E-001	  3.68194E-004
  3.07200E-001	  3.68194E-004
  3.32800E-001	  3.68194E-004
  3.58400E-001	  3.68194E-004
  3.84000E-001	  3.68194E-004
  4.09600E-001	  3.15914E-004
  4.60800E-001	  3.15914E-004
  5.12000E-001	  3.15914E-004
  5.63200E-001	  3.15914E-004
  6.14400E-001	  3.15914E-004
  6.65600E-001	  3.15914E-004
  7.16800E-001	  3.15914E-004
  7.68000E-001	  3.15914E-004
  8.19200E-001	  2.68486E-004
  9.21600E-001	  2.68486E-004
  1.02400E+000	  2.68486E-004
  1.12640E+000	  2.68486E-004
  1.22880E+000	  2.68486E-004
  1.33120E+000	  2.68486E-004
  1.43360E+000	  2.68486E-004
  1.53600E+000	  2.68486E-004
  1.63840E+000	  2.13575E-004
  1.84320E+000	  2.13575E-004
  2.04800E+000	  2.13575E-004
  2.25280E+000	  2.13575E-004
  2.45760E+000	  2.13575E-004
  2.66240E+000	  2.13575E-004
  2.86720E+000	  2.13575E-004
  3.07200E+000	  2.13575E-004
  3.27680E+000	  1.61663E-004
  3.68640E+000	  1.61663E-004
  4.09600E+000	  1.61663E-004
  4.50560E+000	  1.61663E-004
  4.91520E+000	  1.61663E-004
  5.32480E+000	  1.61663E-004
  5.73440E+000	  1.61663E-004
  6.14400E+000	  1.61663E-004
  6.55360E+000	  1.18345E-004
  7.37280E+000	  1.18345E-004
  8.19200E+000	  1.18345E-004
  9.01120E+000	  1.18345E-004
  9.83040E+000	  1.18345E-004
  1.06496E+001	  1.18345E-004
  1.14688E+001	  1.18345E-004
  1.22880E+001	  1.18345E-004
  1.31072E+001	  8.51106E-005
  1.47456E+001	  8.51106E-005
  1.63840E+001	  8.51106E-005
  1.80224E+001	  8.51106E-005
  1.96608E+001	  8.51106E-005
  2.12992E+001	  8.51106E-005
  2.29376E+001	  8.51106E-005
  2.45760E+001	  8.51106E-005
  2.62144E+001	  6.06871E-005
  2.94912E+001	  6.06871E-005
  3.27680E+001	  6.06871E-005
  3.60448E+001	  6.06871E-005
  3.93216E+001	  6.06871E-005
  4.25984E+001	  6.06871E-005
  4.58752E+001	  6.06871E-005
  4.91520E+001	  6.06871E-005
  5.24288E+001	  4.30907E-005
  5.89824E+001	  4.30907E-005
  6.55360E+001	  4.30907E-005
  7.20896E+001	  4.30907E-005
  7.86432E+001	  4.30907E-005
  8.51968E+001	  4.30907E-005
  9.17504E+001	  4.30907E-005
  9.83040E+001	  4.30907E-005
  1.04858E+002	  3.05329E-005
  1.17965E+002	  3.05329E-005
  1.31072E+002	  3.05329E-005
  1.44179E+002	  3.05329E-005
  1.57286E+002	  3.05329E-005
  1.70394E+002	  3.05329E-005
  1.83501E+002	  3.05329E-005
  1.96608E+002	  3.05329E-005
  2.09715E+002	  2.16123E-005
  2.35930E+002	  2.16123E-005
  2.62144E+002	  2.16123E-005
  2.88358E+002	  2.16123E-005
  3.14573E+002	  2.16123E-005
  3.40787E+002	  2.16123E-005
  3.67002E+002	  2.16123E-005
  3.93216E+002	  2.16123E-005
  4.19430E+002	  1.52901E-005
  4.71859E+002	  1.52901E-005
  5.24288E+002	  1.52901E-005
  5.76717E+002	  1.52901E-005
  6.29146E+002	  1.52901E-005
  6.81574E+002	  1.52901E-005
  7.34003E+002	  1.52901E-005
  7.86432E+002	  1.52901E-005
  8.38861E+002	  1.08145E-005
  9.43718E+002	  1.08145E-005
  1.04858E+003	  1.08145E-005
  1.15343E+003	  1.08145E-005
  1.25829E+003	  1.08145E-005
  1.36315E+003	  1.08145E-005
  1.46801E+003	  1.08145E-005
  1.57286E+003	  1.08145E-005
  1.67772E+003	  7.64800E-006
  1.88744E+003	  7.64800E-006
  2.09715E+003	  7.64800E-006
  2.30687E+003	  7.64800E-006
  2.51658E+003	  7.64800E-006
  2.72630E+003	  7.64800E-006
  2.93601E+003	  7.64800E-006
  3.14573E+003	  7.64800E-006
  3.35544E+003	  5.40830E-006
  3.77487E+003	  5.40830E-006
  4.19430E+003	  5.40830E-006
  4.61373E+003	  5.40830E-006
  5.03317E+003	  5.40830E-006
  5.45260E+003	  5.40830E-006
  5.87203E+003	  5.40830E-006
  6.29146E+003	  5.40830E-006
  6.71089E+003	  3.82437E-006
  7.54975E+003	  3.82437E-006
  8.38861E+003	  3.82437E-006
  9.22747E+003	  3.82437E-006
  1.00663E+004	  3.82437E-006
  1.09052E+004	  3.82437E-006
  1.17441E+004	  3.82437E-006
