ALV-7004 or ALV-7004/FAST Data
Date :	"3/27/2010"
Time :	"10:43:02 AM"
Samplename : 	"BSA 1 g/l in YCl3 8.3mM"
SampMemo(0) : 	""
SampMemo(1) : 	""
SampMemo(2) : 	""
SampMemo(3) : 	""
SampMemo(4) : 	""
SampMemo(5) : 	""
SampMemo(6) : 	""
SampMemo(7) : 	""
SampMemo(8) : 	""
SampMemo(9) : 	""
Temperature [K] :	     295.66265
Viscosity [cp]  :	       0.94304
Refractive Index:	       1.33200
Wavelength [nm] :	     632.80000
Angle [°]       :	      50.00000
Duration [s]    :	        70
Runs            :	         1
Mode            :	"C-CH0/1+1/0"
MeanCR0 [kHz]   :	      72.13796
MeanCR1 [kHz]   :	      87.89141
MeanCR2 [kHz]   :	       0.00000
MeanCR3 [kHz]   :	       0.00000

"Correlation"
  3.12500E-006	  9.89683E-001	  1.02618E+000	 -3.00000E+000	 -3.00000E+000
  6.25000E-006	  9.13623E-001	  9.96628E-001	 -3.00000E+000	 -3.00000E+000
  9.37500E-006	  9.21970E-001	  8.70303E-001	 -3.00000E+000	 -3.00000E+000
  1.25000E-005	  9.24839E-001	  9.54509E-001	 -3.00000E+000	 -3.00000E+000
  1.56250E-005	  9.92339E-001	  1.02000E+000	 -3.00000E+000	 -3.00000E+000
  1.87500E-005	  9.24524E-001	  8.94361E-001	 -3.00000E+000	 -3.00000E+000
  2.18750E-005	  8.84276E-001	  9.64168E-001	 -3.00000E+000	 -3.00000E+000
  2.50000E-005	  9.49019E-001	  9.16735E-001	 -3.00000E+000	 -3.00000E+000
  2.81250E-005	  9.62052E-001	  1.00427E+000	 -3.00000E+000	 -3.00000E+000
  3.12500E-005	  9.42473E-001	  9.15915E-001	 -3.00000E+000	 -3.00000E+000
  3.43750E-005	  8.60984E-001	  9.35611E-001	 -3.00000E+000	 -3.00000E+000
  3.75000E-005	  9.52645E-001	  9.45287E-001	 -3.00000E+000	 -3.00000E+000
  4.06250E-005	  8.46070E-001	  8.22596E-001	 -3.00000E+000	  1.95978E+000
  4.37500E-005	  9.09317E-001	  8.61737E-001	 -3.00000E+000	  2.51470E+000
  4.68750E-005	  9.63223E-001	  9.36478E-001	 -3.00000E+000	 -6.97433E-001
  5.00000E-005	  9.49289E-001	  9.47568E-001	 -3.00000E+000	  3.48192E+000
  5.62500E-005	  9.61864E-001	  9.65243E-001	 -3.00000E+000	  1.76916E+000
  6.25000E-005	  9.69924E-001	  9.39459E-001	 -3.00000E+000	  1.72690E+000
  6.87500E-005	  9.23889E-001	  9.41053E-001	 -2.89249E+000	  1.91260E+000
  7.50000E-005	  9.10131E-001	  9.61722E-001	  2.68571E+000	  1.27381E+000
  8.12500E-005	  9.57860E-001	  9.42086E-001	  1.36339E+000	  1.38717E+000
  8.75000E-005	  9.03343E-001	  8.80788E-001	  1.31816E+000	  1.34906E+000
  9.37500E-005	  9.11794E-001	  9.41893E-001	  1.19976E+000	  1.30048E+000
  1.00000E-004	  9.13361E-001	  9.51607E-001	  1.15227E+000	  1.15998E+000
  1.12500E-004	  9.35843E-001	  9.52744E-001	  1.13841E+000	  1.18148E+000
  1.25000E-004	  9.36958E-001	  9.55122E-001	  9.74717E-001	  1.18319E+000
  1.37500E-004	  9.46007E-001	  9.41577E-001	  1.00192E+000	  1.14141E+000
  1.50000E-004	  9.35609E-001	  9.15986E-001	  9.61044E-001	  1.11978E+000
  1.62500E-004	  9.53151E-001	  9.40675E-001	  9.62306E-001	  1.03565E+000
  1.75000E-004	  9.36454E-001	  9.41582E-001	  9.24762E-001	  1.11865E+000
  1.87500E-004	  9.68602E-001	  9.81745E-001	  9.35806E-001	  1.04244E+000
  2.00000E-004	  9.52217E-001	  9.40633E-001	  9.86425E-001	  1.03548E+000
  2.25000E-004	  9.26266E-001	  9.18544E-001	  9.36336E-001	  1.03559E+000
  2.50000E-004	  9.32080E-001	  9.46887E-001	  9.49295E-001	  1.03609E+000
  2.75000E-004	  9.30940E-001	  9.32783E-001	  9.52104E-001	  1.02715E+000
  3.00000E-004	  9.17950E-001	  9.31982E-001	  9.60255E-001	  1.01219E+000
  3.25000E-004	  9.23391E-001	  9.14054E-001	  9.32628E-001	  1.02588E+000
  3.50000E-004	  9.16563E-001	  9.35754E-001	  9.28053E-001	  9.73566E-001
  3.75000E-004	  9.41594E-001	  9.36376E-001	  9.44632E-001	  9.69727E-001
  4.00000E-004	  9.29907E-001	  9.41267E-001	  9.29445E-001	  9.98872E-001
  4.50000E-004	  9.00643E-001	  9.02810E-001	  8.99477E-001	  9.85666E-001
  5.00000E-004	  9.22145E-001	  9.34450E-001	  9.31733E-001	  9.76396E-001
  5.50000E-004	  9.09547E-001	  9.06949E-001	  9.47471E-001	  9.91528E-001
  6.00000E-004	  9.12096E-001	  9.17935E-001	  9.31702E-001	  9.80502E-001
  6.50000E-004	  8.97236E-001	  8.93740E-001	  9.23306E-001	  9.71167E-001
  7.00000E-004	  9.33669E-001	  9.38805E-001	  9.14539E-001	  9.68996E-001
  7.50000E-004	  9.28464E-001	  9.29424E-001	  9.15373E-001	  9.63936E-001
  8.00000E-004	  9.15798E-001	  9.17129E-001	  9.14895E-001	  9.58070E-001
  9.00000E-004	  9.23427E-001	  9.17729E-001	  9.28167E-001	  9.56438E-001
  1.00000E-003	  9.24687E-001	  9.29951E-001	  9.34570E-001	  9.56163E-001
  1.10000E-003	  9.22636E-001	  9.14484E-001	  9.40507E-001	  9.46991E-001
  1.20000E-003	  9.18091E-001	  9.19373E-001	  9.10934E-001	  9.36120E-001
  1.30000E-003	  9.18992E-001	  9.21959E-001	  9.16270E-001	  9.51912E-001
  1.40000E-003	  9.08567E-001	  9.14199E-001	  9.20327E-001	  9.49440E-001
  1.50000E-003	  9.03238E-001	  9.06575E-001	  9.24403E-001	  9.55247E-001
  1.60000E-003	  9.08824E-001	  9.05622E-001	  9.12062E-001	  9.45999E-001
  1.80000E-003	  9.05848E-001	  9.06794E-001	  9.04532E-001	  9.35141E-001
  2.00000E-003	  9.08172E-001	  9.00098E-001	  8.99181E-001	  9.29412E-001
  2.20000E-003	  9.03673E-001	  9.01828E-001	  8.85977E-001	  9.34656E-001
  2.40000E-003	  9.03966E-001	  9.09460E-001	  9.01829E-001	  9.29485E-001
  2.60000E-003	  8.95337E-001	  8.86406E-001	  9.13357E-001	  9.22652E-001
  2.80000E-003	  8.99336E-001	  9.02636E-001	  8.95418E-001	  9.05920E-001
  3.00000E-003	  8.98148E-001	  9.08667E-001	  8.97419E-001	  9.29598E-001
  3.20000E-003	  8.93669E-001	  8.94926E-001	  8.92312E-001	  9.17101E-001
  3.60000E-003	  8.80382E-001	  8.86124E-001	  8.85418E-001	  9.05217E-001
  4.00000E-003	  8.74723E-001	  8.81114E-001	  8.86031E-001	  8.96520E-001
  4.40000E-003	  8.72736E-001	  8.74580E-001	  8.81375E-001	  8.91411E-001
  4.80000E-003	  8.67674E-001	  8.68896E-001	  8.82577E-001	  8.87076E-001
  5.20000E-003	  8.68047E-001	  8.67174E-001	  8.72462E-001	  8.84270E-001
  5.60000E-003	  8.56244E-001	  8.46093E-001	  8.67974E-001	  8.76165E-001
  6.00000E-003	  8.50169E-001	  8.45559E-001	  8.50649E-001	  8.69519E-001
  6.40000E-003	  8.48810E-001	  8.45951E-001	  8.48828E-001	  8.62710E-001
  7.20000E-003	  8.37755E-001	  8.36315E-001	  8.47341E-001	  8.61805E-001
  8.00000E-003	  8.27765E-001	  8.25371E-001	  8.33853E-001	  8.43059E-001
  8.80000E-003	  8.18489E-001	  8.17109E-001	  8.30930E-001	  8.31867E-001
  9.60000E-003	  8.09380E-001	  8.07009E-001	  8.22648E-001	  8.18486E-001
  1.04000E-002	  7.99677E-001	  8.00483E-001	  8.15245E-001	  8.16388E-001
  1.12000E-002	  7.92519E-001	  7.91758E-001	  7.99797E-001	  8.09430E-001
  1.20000E-002	  7.82079E-001	  7.78998E-001	  7.90218E-001	  7.97399E-001
  1.28000E-002	  7.71079E-001	  7.72665E-001	  7.86674E-001	  7.86746E-001
  1.44000E-002	  7.51532E-001	  7.51965E-001	  7.68444E-001	  7.71487E-001
  1.60000E-002	  7.35755E-001	  7.34803E-001	  7.51350E-001	  7.51067E-001
  1.76000E-002	  7.18384E-001	  7.19845E-001	  7.32733E-001	  7.33766E-001
  1.92000E-002	  6.99354E-001	  7.01764E-001	  7.16313E-001	  7.14171E-001
  2.08000E-002	  6.87025E-001	  6.89008E-001	  7.02276E-001	  6.97893E-001
  2.24000E-002	  6.70457E-001	  6.68770E-001	  6.83113E-001	  6.78627E-001
  2.40000E-002	  6.53420E-001	  6.53733E-001	  6.66991E-001	  6.59706E-001
  2.56000E-002	  6.37715E-001	  6.40612E-001	  6.52822E-001	  6.49569E-001
  2.88000E-002	  6.10261E-001	  6.08570E-001	  6.27062E-001	  6.20038E-001
  3.20000E-002	  5.82351E-001	  5.81286E-001	  5.96454E-001	  5.93803E-001
  3.52000E-002	  5.53419E-001	  5.52296E-001	  5.67605E-001	  5.64438E-001
  3.84000E-002	  5.28731E-001	  5.27747E-001	  5.40466E-001	  5.39862E-001
  4.16000E-002	  5.06146E-001	  5.07880E-001	  5.14851E-001	  5.13970E-001
  4.48000E-002	  4.82165E-001	  4.82030E-001	  4.94366E-001	  4.90796E-001
  4.80000E-002	  4.60469E-001	  4.59726E-001	  4.70715E-001	  4.69963E-001
  5.12000E-002	  4.41077E-001	  4.40594E-001	  4.50653E-001	  4.47395E-001
  5.76000E-002	  3.99717E-001	  3.98633E-001	  4.09285E-001	  4.07184E-001
  6.40000E-002	  3.64987E-001	  3.64532E-001	  3.72823E-001	  3.71319E-001
  7.04000E-002	  3.31291E-001	  3.31167E-001	  3.39643E-001	  3.38391E-001
  7.68000E-002	  3.01780E-001	  3.01880E-001	  3.09959E-001	  3.09304E-001
  8.32000E-002	  2.76113E-001	  2.75622E-001	  2.81614E-001	  2.81886E-001
  8.96000E-002	  2.52711E-001	  2.53136E-001	  2.55945E-001	  2.57497E-001
  9.60000E-002	  2.31035E-001	  2.30183E-001	  2.36293E-001	  2.35562E-001
  1.02400E-001	  2.10581E-001	  2.10904E-001	  2.14460E-001	  2.15083E-001
  1.15200E-001	  1.75104E-001	  1.75649E-001	  1.78410E-001	  1.79313E-001
  1.28000E-001	  1.47192E-001	  1.47448E-001	  1.49280E-001	  1.48084E-001
  1.40800E-001	  1.22211E-001	  1.21370E-001	  1.23596E-001	  1.24214E-001
  1.53600E-001	  1.00933E-001	  1.01399E-001	  1.03948E-001	  1.03205E-001
  1.66400E-001	  8.54316E-002	  8.61957E-002	  8.76920E-002	  8.57391E-002
  1.79200E-001	  7.15304E-002	  7.19617E-002	  7.28865E-002	  7.23325E-002
  1.92000E-001	  5.95400E-002	  5.93058E-002	  6.07763E-002	  5.90198E-002
  2.04800E-001	  4.96964E-002	  4.98519E-002	  5.05332E-002	  5.02186E-002
  2.30400E-001	  3.52615E-002	  3.60959E-002	  3.67545E-002	  3.56759E-002
  2.56000E-001	  2.44946E-002	  2.54512E-002	  2.54181E-002	  2.46779E-002
  2.81600E-001	  1.72004E-002	  1.76123E-002	  1.75211E-002	  1.71039E-002
  3.07200E-001	  1.18502E-002	  1.24491E-002	  1.20475E-002	  1.17627E-002
  3.32800E-001	  8.81576E-003	  9.13076E-003	  8.69071E-003	  8.38518E-003
  3.58400E-001	  6.92200E-003	  6.79684E-003	  4.58033E-003	  5.61476E-003
  3.84000E-001	  4.99140E-003	  4.68709E-003	  4.71921E-003	  5.34192E-003
  4.09600E-001	  3.78402E-003	  2.89374E-003	  3.73162E-003	  3.51510E-003
  4.60800E-001	  2.06433E-003	  1.80618E-003	  2.40275E-003	  2.06966E-003
  5.12000E-001	  1.69291E-003	  1.67764E-003	  1.39190E-003	  5.99098E-004
  5.63200E-001	  8.62046E-004	  1.23580E-003	  9.35164E-004	  1.05771E-003
  6.14400E-001	  5.76275E-004	  1.93870E-004	  7.19717E-004	  3.67822E-004
  6.65600E-001	  5.58049E-004	  5.56634E-004	  9.19697E-004	  7.69808E-004
  7.16800E-001	  3.46667E-004	  2.78834E-004	  5.90965E-004	 -1.11618E-004
  7.68000E-001	  7.64294E-004	  5.62238E-004	  7.65015E-004	  4.92417E-004
  8.19200E-001	  6.62629E-004	  3.82311E-004	  5.56980E-004	  3.28095E-004
  9.21600E-001	 -1.80052E-004	  1.14228E-005	 -2.65624E-005	 -1.59621E-003
  1.02400E+000	 -4.21622E-004	 -7.97483E-004	 -6.59009E-004	 -7.22859E-004
  1.12640E+000	 -9.12312E-004	 -9.33778E-004	 -9.44247E-004	 -4.82263E-004
  1.22880E+000	 -3.33236E-004	 -6.59521E-004	 -8.45598E-004	 -5.88828E-004
  1.33120E+000	 -4.69009E-004	 -4.29042E-004	 -3.17656E-004	 -9.70553E-004
  1.43360E+000	 -4.02467E-004	 -5.49788E-004	 -4.14109E-004	 -2.22297E-004
  1.53600E+000	  1.96949E-004	  1.16786E-003	 -4.50207E-004	  7.39501E-005
  1.63840E+000	 -8.86267E-005	  1.97532E-004	 -9.46209E-004	  2.21633E-004
  1.84320E+000	  3.02480E-004	 -4.60059E-008	  1.44432E-004	  5.51744E-004
  2.04800E+000	  2.95867E-004	  6.29485E-004	 -3.46493E-004	  5.77684E-004
  2.25280E+000	  9.10701E-004	  1.16387E-003	 -9.31632E-005	  1.81926E-003
  2.45760E+000	  2.74998E-004	 -4.33616E-004	 -1.37039E-004	  4.49791E-004
  2.66240E+000	  1.52878E-004	 -2.91587E-004	 -4.43755E-004	  2.76564E-004
  2.86720E+000	 -7.61981E-005	  3.88575E-005	  2.21300E-005	 -4.07665E-004
  3.07200E+000	  1.62189E-004	  5.10209E-004	  3.23108E-004	 -8.54771E-005
  3.27680E+000	  3.95916E-004	  6.11303E-004	  4.27464E-004	  2.59466E-004
  3.68640E+000	  6.92680E-004	  4.46779E-004	  7.53043E-004	  8.42115E-004
  4.09600E+000	 -4.52556E-006	  4.51666E-005	  9.73885E-006	 -2.39523E-004
  4.50560E+000	 -2.71879E-004	  1.84696E-004	 -5.96030E-005	 -9.45271E-004
  4.91520E+000	 -6.01219E-004	 -8.00555E-004	 -3.06614E-004	 -6.97352E-004
  5.32480E+000	  3.60797E-005	 -2.82985E-004	  9.25303E-005	 -7.39417E-005
  5.73440E+000	  2.56971E-004	 -5.77383E-005	  1.97320E-004	  4.30496E-004
  6.14400E+000	  3.94960E-004	  7.11010E-004	  4.96579E-005	  7.32602E-004
  6.55360E+000	  3.70917E-004	  2.37019E-004	  3.65305E-004	  2.44677E-004
  7.37280E+000	 -2.74446E-004	 -4.36215E-004	 -3.78289E-004	  7.47585E-005
  8.19200E+000	  1.74385E-004	  5.18904E-004	 -1.22160E-004	  2.14949E-004
  9.01120E+000	  3.40053E-004	  2.64398E-004	  2.67759E-004	  2.84049E-004
  9.83040E+000	 -3.43401E-004	 -3.07193E-004	 -4.63928E-004	 -3.64261E-005
  1.06496E+001	 -3.15228E-004	 -6.26736E-004	 -6.28926E-004	 -3.23882E-004
  1.14688E+001	 -5.18453E-004	 -6.46951E-004	 -5.31082E-004	 -4.53501E-004
  1.22880E+001	 -8.14366E-004	 -9.06078E-004	 -9.01638E-004	 -8.19454E-004
  1.31072E+001	 -1.92017E-005	 -5.99239E-005	  1.35560E-004	 -1.86735E-004
  1.47456E+001	 -3.19138E-004	 -5.67833E-004	 -4.77235E-004	 -3.71039E-004
  1.63840E+001	  2.10422E-004	  2.31519E-004	  3.33640E-004	  2.14026E-004
  1.80224E+001	  2.57188E-004	  4.27085E-004	  1.87250E-004	  3.34643E-004
  1.96608E+001	 -9.50426E-005	 -2.77891E-005	 -2.13687E-004	 -2.70246E-004
  2.12992E+001	  1.60060E-004	  1.43491E-004	  5.71923E-005	  1.95145E-004
  2.29376E+001	  6.70653E-005	  1.48038E-004	  9.39874E-005	 -8.19382E-005
  2.45760E+001	 -3.53109E-004	 -4.17194E-004	 -4.08001E-004	 -2.65220E-004
  2.62144E+001	 -1.04358E-004	 -6.51998E-005	 -1.87263E-004	  1.37600E-004
  2.94912E+001	  5.76208E-005	  4.33873E-005	  4.66802E-005	  1.29764E-004
  3.27680E+001	  4.68899E-004	  7.19587E-004	  4.93600E-004	  5.93229E-004
  3.60448E+001	 -1.17657E-004	 -7.55639E-005	 -5.28979E-005	  9.21952E-006
  3.93216E+001	  1.58186E-004	  1.39702E-004	  3.84896E-005	  1.49692E-004
  4.25984E+001	 -3.79464E-004	 -2.53318E-004	 -3.10045E-004	 -4.24083E-004
  4.58752E+001	  2.11731E-004	  1.93832E-004	  3.23077E-004	  8.25436E-005
  4.91520E+001	  1.33041E-004	  2.26048E-004	  9.79768E-005	  9.64090E-005
  5.24288E+001	  3.24920E-005	  7.58057E-006	 -2.14133E-005	  8.86591E-005
  5.89824E+001	 -6.65664E-005	 -8.98212E-005	 -1.19328E-004	  6.17458E-005
  6.55360E+001	  6.57363E-006	 -1.76659E-005	  2.84434E-005	 -1.11444E-005
  7.20896E+001	  3.35687E-005	  1.58895E-004	  3.84195E-005	  3.24506E-005
  7.86432E+001	 -1.54750E-004	 -1.52958E-004	 -8.16749E-005	 -2.03623E-004
  8.51968E+001	  7.58566E-005	  1.18443E-004	  9.88923E-005	 -1.60707E-005
  9.17504E+001	  3.16099E-004	  4.16148E-004	  1.87940E-004	  3.71728E-004
  9.83040E+001	  6.50631E-005	  3.76644E-005	  2.90754E-005	  8.99563E-005
  1.04858E+002	  1.35901E-004	  1.84657E-004	  1.65583E-004	  1.51928E-004
  1.17965E+002	 -4.11134E-005	 -1.74414E-005	 -1.13999E-004	  3.28627E-005
  1.31072E+002	 -1.70620E-005	  8.94244E-006	 -2.69183E-005	 -3.57240E-005
  1.44179E+002	  5.09060E-005	  1.31650E-005	  5.17573E-005	  3.16913E-005
  1.57286E+002	  6.17138E-005	  8.85769E-005	  6.72767E-005	  4.45076E-005
  1.70394E+002	 -7.90446E-005	 -8.65513E-005	 -6.32593E-005	 -1.21034E-004
  1.83501E+002	 -2.60695E-004	 -1.37811E-004	 -2.32599E-004	 -2.99612E-004
  1.96608E+002	 -4.34254E-005	 -5.22181E-005	 -6.86695E-005	 -4.19395E-005
  2.09715E+002	  4.15742E-005	  3.41324E-005	 -1.23132E-005	  2.81602E-005
  2.35930E+002	 -6.67091E-005	 -7.33091E-005	 -3.37200E-005	 -1.07154E-004
  2.62144E+002	 -1.59444E-006	 -1.75437E-005	 -8.26852E-005	  5.94207E-005
  2.88358E+002	 -1.35339E-004	 -1.42077E-004	 -1.92264E-004	 -7.08645E-005
  3.14573E+002	  1.93223E-005	 -2.13419E-005	  1.60151E-005	  4.09096E-005
  3.40787E+002	 -5.08099E-005	 -7.93800E-005	 -6.08511E-005	 -7.30481E-005
  3.67002E+002	  9.15318E-005	  1.18865E-004	  8.04329E-005	  9.18492E-005
  3.93216E+002	  7.90102E-006	 -3.48919E-006	 -1.17870E-005	  9.08088E-005
  4.19430E+002	 -2.85553E-005	 -1.72648E-005	 -5.74096E-005	 -1.54669E-005
  4.71859E+002	 -3.57162E-005	 -2.26643E-005	 -7.65912E-005	 -7.12509E-007
  5.24288E+002	  1.76651E-005	 -1.65993E-005	  3.31596E-005	 -5.63715E-006
  5.76717E+002	 -2.85416E-005	 -1.70746E-005	 -5.55060E-005	 -2.94735E-005
  6.29146E+002	 -5.23886E-005	 -5.23315E-005	 -1.83200E-005	 -5.00825E-005
  6.81574E+002	  8.87456E-005	  9.93740E-005	  1.10928E-004	  7.36201E-005
  7.34003E+002	 -1.13313E-005	  2.36314E-005	 -5.40217E-005	 -3.00235E-006
  7.86432E+002	  3.50018E-006	  1.65701E-005	  5.54205E-005	 -3.49266E-005
  8.38861E+002	 -5.43784E-005	 -4.55945E-005	 -3.30909E-005	 -8.95888E-005
  9.43718E+002	 -6.58625E-005	 -5.85944E-005	 -5.93115E-005	 -7.10492E-005
  1.04858E+003	 -3.38728E-005	 -3.31409E-005	 -5.27606E-005	 -2.09424E-005
  1.15343E+003	 -3.62431E-005	 -4.52938E-005	 -3.50240E-005	 -4.68292E-005
  1.25829E+003	 -2.93627E-005	 -4.24768E-005	 -2.80169E-005	 -3.48880E-005
  1.36315E+003	 -4.11309E-005	 -5.27795E-005	 -4.03900E-005	 -2.18332E-005
  1.46801E+003	  1.78068E-005	  3.33518E-005	  3.16070E-005	 -2.03740E-005
  1.57286E+003	  1.44816E-005	  1.39817E-005	  2.49437E-005	  1.07127E-005
  1.67772E+003	  1.07984E-005	  1.63441E-005	  1.43855E-005	  1.85421E-005
  1.88744E+003	  5.36961E-006	 -8.20660E-006	 -1.97339E-006	  1.98566E-006
  2.09715E+003	  1.47622E-005	  2.95733E-006	  1.99081E-005	 -1.81145E-005
  2.30687E+003	 -2.39403E-005	 -1.52814E-005	  1.32059E-006	 -4.10806E-005
  2.51658E+003	  2.09017E-005	  2.17724E-005	  1.00838E-005	  4.12000E-005
  2.72630E+003	 -2.57567E-005	 -1.43470E-005	 -1.84538E-005	 -4.16251E-005
  2.93601E+003	  2.62938E-005	  2.18536E-005	  2.67718E-005	  1.08712E-006
  3.14573E+003	 -7.49896E-006	  1.05259E-006	 -1.57545E-005	 -1.43758E-005
  3.35544E+003	 -1.04082E-005	 -7.28205E-006	 -6.52136E-006	 -9.17403E-006
  3.77487E+003	  2.05113E-005	  1.29905E-005	  4.64036E-005	  9.22169E-006
  4.19430E+003	 -2.02335E-005	 -2.05020E-005	 -1.97046E-005	 -3.70118E-006
  4.61373E+003	  1.48005E-005	  8.89803E-006	  1.16395E-005	  1.61464E-005
  5.03317E+003	 -2.28583E-005	 -2.44690E-005	 -2.66551E-005	 -1.44960E-005
  5.45260E+003	 -6.54148E-006	 -1.53120E-005	 -1.95588E-005	 -4.60852E-006
  5.87203E+003	 -1.16083E-005	 -2.01390E-006	  3.24795E-006	 -1.16695E-005
  6.29146E+003	  2.16373E-005	  2.17286E-005	  1.00232E-005	  2.86952E-005
  6.71089E+003	 -7.23379E-006	 -6.65008E-006	 -1.45326E-005	 -2.59803E-005
  7.54975E+003	  1.23992E-005	  5.71494E-006	  8.54236E-006	  7.93537E-006
  8.38861E+003	  9.70784E-006	  1.25145E-005	  1.65955E-005	  5.05239E-006
  9.22747E+003	  8.82265E-006	  1.11176E-005	  4.76102E-006	  9.08025E-006
  1.00663E+004	 -2.50339E-005	 -2.93506E-005	 -2.11021E-005	 -2.33771E-005
  1.09052E+004	  1.09703E-005	  7.78124E-006	  7.49377E-006	  1.31723E-005
  1.17441E+004	 -3.20885E-006	 -1.83559E-006	 -3.11422E-007	 -1.51431E-005

"Count Rate"
       0.27344	      72.03383	      87.72610	      72.03383	      87.72610
       0.54688	      70.31543	      86.53419	      70.31543	      86.53419
       0.82031	      71.32453	      88.43906	      71.32453	      88.43906
       1.09375	      73.07584	      89.43353	      73.07584	      89.43353
       1.36719	      71.92049	      87.87601	      71.92049	      87.87601
       1.64063	      73.30252	      89.33482	      73.30252	      89.33482
       1.91406	      72.41042	      88.20140	      72.41042	      88.20140
       2.18750	      71.97533	      87.42995	      71.97533	      87.42995
       2.46094	      72.50182	      87.56523	      72.50182	      87.56523
       2.73438	      71.97167	      86.52322	      71.97167	      86.52322
       3.00781	      71.58778	      87.18133	      71.58778	      87.18133
       3.28125	      70.59695	      85.58724	      70.59695	      85.58724
       3.55469	      72.01189	      88.34399	      72.01189	      88.34399
       3.82813	      71.53293	      86.76453	      71.53293	      86.76453
       4.10156	      71.98995	      86.87056	      71.98995	      86.87056
       4.37500	      71.20387	      86.63657	      71.20387	      86.63657
       4.64844	      73.12702	      89.60902	      73.12702	      89.60902
       4.92188	      72.50547	      87.40436	      72.50547	      87.40436
       5.19531	      72.77237	      88.89973	      72.77237	      88.89973
       5.46875	      72.58956	      88.75349	      72.58956	      88.75349
       5.74219	      73.92041	      90.44994	      73.92041	      90.44994
       6.01563	      70.49824	      86.61828	      70.49824	      86.61828
       6.28906	      71.69380	      86.80109	      71.69380	      86.80109
       6.56250	      71.35744	      86.42451	      71.35744	      86.42451
       6.83594	      72.20932	      87.60545	      72.20932	      87.60545
       7.10938	      72.38116	      89.85399	      72.38116	      89.85399
       7.38281	      72.08501	      88.23796	      72.08501	      88.23796
       7.65625	      73.05024	      88.25259	      73.05024	      88.25259
       7.92969	      71.33549	      85.97845	      71.33549	      85.97845
       8.20313	      71.52927	      87.10455	      71.52927	      87.10455
       8.47656	      70.13628	      86.21610	      70.13628	      86.21610
       8.75000	      73.00637	      88.25625	      73.00637	      88.25625
       9.02344	      74.48346	      91.20677	      74.48346	      91.20677
       9.29688	      74.04106	      90.16476	      74.04106	      90.16476
       9.57031	      73.10874	      89.83571	      73.10874	      89.83571
       9.84375	      72.09232	      86.91077	      72.09232	      86.91077
      10.11719	      72.10329	      88.81564	      72.10329	      88.81564
      10.39063	      71.15269	      85.86146	      71.15269	      85.86146
      10.66406	      71.11613	      86.99487	      71.11613	      86.99487
      10.93750	      71.67552	      87.91622	      71.67552	      87.91622
      11.21094	      73.49629	      89.53225	      73.49629	      89.53225
      11.48438	      72.93690	      88.88511	      72.93690	      88.88511
      11.75781	      71.04666	      87.02777	      71.04666	      87.02777
      12.03125	      71.62799	      86.13201	      71.62799	      86.13201
      12.30469	      72.95518	      88.69498	      72.95518	      88.69498
      12.57813	      72.39944	      87.40436	      72.39944	      87.40436
      12.85156	      72.57128	      88.82661	      72.57128	      88.82661
      13.12500	      71.97898	      88.05150	      71.97898	      88.05150
      13.39844	      72.16545	      89.48837	      72.16545	      89.48837
      13.67188	      73.82169	      88.60358	      73.82169	      88.60358
      13.94531	      70.66642	      87.38242	      70.66642	      87.38242
      14.21875	      72.58956	      87.58717	      72.58956	      87.58717
      14.49219	      71.39765	      87.23983	      71.39765	      87.23983
      14.76563	      72.03383	      85.82124	      72.03383	      85.82124
      15.03906	      73.27692	      88.87779	      73.27692	      88.87779
      15.31250	      73.21477	      88.83758	      73.21477	      88.83758
      15.58594	      69.89497	      85.48853	      69.89497	      85.48853
      15.85938	      71.25872	      86.60366	      71.25872	      86.60366
      16.13281	      72.26417	      88.31840	      72.26417	      88.31840
      16.40625	      72.64075	      87.97838	      72.64075	      87.97838
      16.67969	      72.39213	      88.75714	      72.39213	      88.75714
      16.95313	      72.81990	      88.31474	      72.81990	      88.31474
      17.22656	      71.53659	      86.54516	      71.53659	      86.54516
      17.50000	      74.24215	      90.25983	      74.24215	      90.25983
      17.77344	      75.43407	      90.46822	      75.43407	      90.46822
      18.04688	      72.95518	      89.37138	      72.95518	      89.37138
      18.32031	      71.20387	      86.30019	      71.20387	      86.30019
      18.59375	      72.62613	      87.43726	      72.62613	      87.43726
      18.86719	      72.71753	      87.13380	      72.71753	      87.13380
      19.14063	      72.18008	      89.18857	      72.18008	      89.18857
      19.41406	      72.01920	      88.37325	      72.01920	      88.37325
      19.68750	      71.89489	      86.63290	      71.89489	      86.63290
      19.96094	      72.25320	      88.84489	      72.25320	      88.84489
      20.23438	      72.94056	      88.87779	      72.94056	      88.87779
      20.50781	      71.28797	      87.55061	      71.28797	      87.55061
      20.78125	      70.89676	      86.44279	      70.89676	      86.44279
      21.05469	      75.40482	      91.02396	      75.40482	      91.02396
      21.32813	      70.63351	      86.85959	      70.63351	      86.85959
      21.60156	      70.01563	      87.01315	      70.01563	      87.01315
      21.87500	      72.43600	      87.45189	      72.43600	      87.45189
      22.14844	      70.70298	      85.27647	      70.70298	      85.27647
      22.42188	      72.30073	      86.61462	      72.30073	      86.61462
      22.69531	      72.08501	      87.83944	      72.08501	      87.83944
      22.96875	      71.30991	      86.97659	      71.30991	      86.97659
      23.24219	      72.21298	      87.57986	      72.21298	      87.57986
      23.51563	      71.66821	      89.21782	      71.66821	      89.21782
      23.78906	      72.74678	      87.52135	      72.74678	      87.52135
      24.06250	      71.01376	      86.58172	      71.01376	      86.58172
      24.33594	      72.27148	      88.30012	      72.27148	      88.30012
      24.60938	      72.05942	      86.88884	      72.05942	      86.88884
      24.88281	      72.18373	      86.20148	      72.18373	      86.20148
      25.15625	      71.43421	      87.25080	      71.43421	      87.25080
      25.42969	      71.36475	      85.44465	      71.36475	      85.44465
      25.70313	      72.02651	      88.64745	      72.02651	      88.64745
      25.97656	      71.19291	      87.17767	      71.19291	      87.17767
      26.25000	      71.39765	      87.75169	      71.39765	      87.75169
      26.52344	      73.23671	      89.08620	      73.23671	      89.08620
      26.79688	      72.80527	      88.95823	      72.80527	      88.95823
      27.07031	      73.98257	      89.75527	      73.98257	      89.75527
      27.34375	      72.25685	      88.12463	      72.25685	      88.12463
      27.61719	      70.71761	      86.92905	      70.71761	      86.92905
      27.89063	      72.20567	      87.95644	      72.20567	      87.95644
      28.16406	      72.53107	      87.66395	      72.53107	      87.66395
      28.43750	      70.93332	      86.05523	      70.93332	      86.05523
      28.71094	      72.57128	      88.81930	      72.57128	      88.81930
      28.98438	      72.93690	      88.39518	      72.93690	      88.39518
      29.25781	      74.61508	      89.69678	      74.61508	      89.69678
      29.53125	      73.29520	      90.03314	      73.29520	      90.03314
      29.80469	      69.69753	      84.92548	      69.69753	      84.92548
      30.07813	      70.87116	      85.53606	      70.87116	      85.53606
      30.35156	      71.89124	      87.14477	      71.89124	      87.14477
      30.62500	      72.70656	      88.43174	      72.70656	      88.43174
      30.89844	      73.13433	      89.88689	      73.13433	      89.88689
      31.17188	      73.14530	      88.79736	      73.14530	      88.79736
      31.44531	      71.20753	      87.11186	      71.20753	      87.11186
      31.71875	      72.28610	      89.22878	      72.28610	      89.22878
      31.99219	      72.30073	      89.45181	      72.30073	      89.45181
      32.26563	      71.56583	      88.30012	      71.56583	      88.30012
      32.53906	      72.57494	      88.11731	      72.57494	      88.11731
      32.81250	      72.56397	      88.89607	      72.56397	      88.89607
      33.08594	      71.95339	      88.65842	      71.95339	      88.65842
      33.35938	      71.01376	      87.52135	      71.01376	      87.52135
      33.63281	      73.08315	      89.04597	      73.08315	      89.04597
      33.90625	      71.55853	      88.15387	      71.55853	      88.15387
      34.17969	      71.79984	      87.83578	      71.79984	      87.83578
      34.45313	      72.49451	      88.10268	      72.49451	      88.10268
      34.72656	      70.68470	      84.62567	      70.68470	      84.62567
      35.00000	      73.04659	      89.10082	      73.04659	      89.10082
      35.27344	      70.18015	      87.08627	      70.18015	      87.08627
      35.54688	      71.62799	      86.67678	      71.62799	      86.67678
      35.82031	      72.49816	      86.70603	      72.49816	      86.70603
      36.09375	      73.17455	      88.70230	      73.17455	      88.70230
      36.36719	      73.02831	      88.84854	      73.02831	      88.84854
      36.64063	      72.26051	      88.63649	      72.26051	      88.63649
      36.91406	      71.33549	      87.74804	      71.33549	      87.74804
      37.18750	      71.56218	      87.82848	      71.56218	      87.82848
      37.46094	      72.65537	      88.13559	      72.65537	      88.13559
      37.73438	      71.04666	      87.68223	      71.04666	      87.68223
      38.00781	      72.74313	      88.00397	      72.74313	      88.00397
      38.28125	      72.38482	      88.11731	      72.38482	      88.11731
      38.55469	      73.66082	      90.05142	      73.66082	      90.05142
      38.82813	      71.67552	      87.96375	      71.67552	      87.96375
      39.10156	      71.85102	      88.10634	      71.85102	      88.10634
      39.37500	      70.88213	      86.18320	      70.88213	      86.18320
      39.64844	      71.94974	      88.20140	      71.94974	      88.20140
      39.92188	      72.18008	      87.43361	      72.18008	      87.43361
      40.19531	      73.78879	      89.34578	      73.78879	      89.34578
      40.46875	      71.49637	      87.14843	      71.49637	      87.14843
      40.74219	      72.12523	      88.66573	      72.12523	      88.66573
      41.01563	      71.56583	      86.52322	      71.56583	      86.52322
      41.28906	      71.48906	      86.92905	      71.48906	      86.92905
      41.56250	      72.95884	      89.52493	      72.95884	      89.52493
      41.83594	      71.56950	      88.21968	      71.56950	      88.21968
      42.10938	      73.18186	      90.55232	      73.18186	      90.55232
      42.38281	      72.34460	      88.91070	      72.34460	      88.91070
      42.65625	      70.46899	      86.81937	      70.46899	      86.81937
      42.92969	      72.29707	      88.07710	      72.29707	      88.07710
      43.20313	      71.89124	      89.12641	      71.89124	      89.12641
      43.47656	      71.26603	      85.75908	      71.26603	      85.75908
      43.75000	      73.22574	      88.62917	      73.22574	      88.62917
      44.02344	      70.74320	      85.24722	      70.74320	      85.24722
      44.29688	      74.22752	      89.66753	      74.22752	      89.66753
      44.57031	      74.09956	      87.93816	      74.09956	      87.93816
      44.84375	      71.33184	      87.97106	      71.33184	      87.97106
      45.11719	      73.33908	      88.60358	      73.33908	      88.60358
      45.39063	      70.33736	      86.13932	      70.33736	      86.13932
      45.66406	      71.30625	      88.00763	      71.30625	      88.00763
      45.93750	      72.23492	      88.12096	      72.23492	      88.12096
      46.21094	      71.09054	      87.55426	      71.09054	      87.55426
      46.48438	      73.09777	      89.07888	      73.09777	      89.07888
      46.75781	      72.70290	      88.73886	      72.70290	      88.73886
      47.03125	      73.01368	      88.54508	      73.01368	      88.54508
      47.30469	      70.79804	      85.93092	      70.79804	      85.93092
      47.57813	      72.81259	      89.57612	      72.81259	      89.57612
      47.85156	      72.46160	      88.23431	      72.46160	      88.23431
      48.12500	      70.50555	      84.89622	      70.50555	      84.89622
      48.39844	      72.04114	      88.17581	      72.04114	      88.17581
      48.67188	      71.43787	      85.96748	      71.43787	      85.96748
      48.94531	      71.48540	      85.44465	      71.48540	      85.44465
      49.21875	      70.90407	      88.15387	      70.90407	      88.15387
      49.49219	      71.70477	      87.37145	      71.70477	      87.37145
      49.76563	      71.91317	      86.88884	      71.91317	      86.88884
      50.03906	      71.64993	      86.75722	      71.64993	      86.75722
      50.31250	      70.65179	      85.29475	      70.65179	      85.29475
      50.58594	      72.04114	      86.89249	      72.04114	      86.89249
      50.85938	      73.48898	      89.20319	      73.48898	      89.20319
      51.13281	      70.47630	      87.27274	      70.47630	      87.27274
      51.40625	      73.04659	      90.17208	      73.04659	      90.17208
      51.67969	      73.03928	      89.04232	      73.03928	      89.04232
      51.95313	      71.98264	      88.01128	      71.98264	      88.01128
      52.22656	      71.16366	      85.97114	      71.16366	      85.97114
      52.50000	      70.84923	      85.71156	      70.84923	      85.71156
      52.77344	      71.38303	      87.38242	      71.38303	      87.38242
      53.04688	      70.69567	      85.38250	      70.69567	      85.38250
      53.32031	      72.07404	      88.26356	      72.07404	      88.26356
      53.59375	      72.02651	      86.74990	      72.02651	      86.74990
      53.86719	      70.64449	      86.23804	      70.64449	      86.23804
      54.14063	      72.41407	      88.52680	      72.41407	      88.52680
      54.41406	      73.51092	      90.11723	      73.51092	      90.11723
      54.68750	      73.10509	      88.32206	      73.10509	      88.32206
      54.96094	      71.80714	      86.88884	      71.80714	      86.88884
      55.23438	      70.84923	      86.52322	      70.84923	      86.52322
      55.50781	      72.91496	      89.10448	      72.91496	      89.10448
      55.78125	      71.81080	      87.10090	      71.81080	      87.10090
      56.05469	      70.50189	      86.39891	      70.50189	      86.39891
      56.32813	      73.74491	      90.61447	      73.74491	      90.61447
      56.60156	      72.35557	      88.07343	      72.35557	      88.07343
      56.87500	      71.93146	      88.73521	      71.93146	      88.73521
      57.14844	      70.79439	      87.36780	      70.79439	      87.36780
      57.42188	      73.48167	      88.83392	      73.48167	      88.83392
      57.69531	      71.71208	      85.79198	      71.71208	      85.79198
      57.96875	      72.72485	      88.06978	      72.72485	      88.06978
      58.24219	      72.89668	      87.74438	      72.89668	      87.74438
      58.51563	      71.75596	      87.37511	      71.75596	      87.37511
      58.78906	      73.49995	      90.65103	      73.49995	      90.65103
      59.06250	      72.51644	      87.66395	      72.51644	      87.66395
      59.33594	      70.86385	      86.43182	      70.86385	      86.43182
      59.60938	      72.98443	      88.76811	      72.98443	      88.76811
      59.88281	      73.89116	      89.19954	      73.89116	      89.19954
      60.15625	      72.06307	      87.11186	      72.06307	      87.11186
      60.42969	      71.77789	      88.25259	      71.77789	      88.25259
      60.70313	      70.47996	      85.54703	      70.47996	      85.54703
      60.97656	      71.18925	      88.45367	      71.18925	      88.45367
      61.25000	      71.21119	      86.39160	      71.21119	      86.39160
      61.52344	      71.12710	      86.44644	      71.12710	      86.44644
      61.79688	      71.73768	      87.03509	      71.73768	      87.03509
      62.07031	      72.49816	      87.83213	      72.49816	      87.83213
      62.34375	      72.22760	      87.37145	      72.22760	      87.37145
      62.61719	      73.27692	      88.43906	      73.27692	      88.43906
      62.89063	      73.15261	      88.41346	      73.15261	      88.41346
      63.16406	      71.55122	      88.54874	      71.55122	      88.54874
      63.43750	      71.97898	      88.10634	      71.97898	      88.10634
      63.71094	      72.28610	      88.59992	      72.28610	      88.59992
      63.98438	      72.78699	      89.40428	      72.78699	      89.40428
      64.25781	      73.09412	      88.13924	      73.09412	      88.13924
      64.53125	      72.65172	      88.44637	      72.65172	      88.44637
      64.80469	      70.88944	      87.85772	      70.88944	      87.85772
      65.07813	      70.48727	      87.22520	      70.48727	      87.22520
      65.35156	      72.15083	      87.60179	      72.15083	      87.60179
      65.62500	      72.36288	      88.78639	      72.36288	      88.78639
      65.89844	      73.25864	      89.06425	      73.25864	      89.06425
      66.17188	      72.25320	      86.94733	      72.25320	      86.94733
      66.44531	      73.92406	      88.17581	      73.92406	      88.17581
      66.71875	      71.46346	      88.10268	      71.46346	      88.10268
      66.99219	      71.99361	      88.28549	      71.99361	      88.28549
      67.26563	      72.50547	      87.02046	      72.50547	      87.02046
      67.53906	      72.54203	      88.64745	      72.54203	      88.64745
      67.81250	      71.35744	      87.44092	      71.35744	      87.44092
      68.08594	      71.93146	      88.11366	      71.93146	      88.11366
      68.35938	      71.29893	      87.38973	      71.29893	      87.38973
      68.63281	      71.27335	      86.73162	      71.27335	      86.73162
      68.90625	      73.40123	      88.70596	      73.40123	      88.70596
      69.17969	      72.80162	      90.07336	      72.80162	      90.07336
      69.45313	      72.10695	      88.12096	      72.10695	      88.12096

Monitor Diode	1633212.21
"StandardDeviation"
  3.12500E-006	  3.36560E-002
  6.25000E-006	  3.36563E-002
  9.37500E-006	  3.36559E-002
  1.25000E-005	  3.36563E-002
  1.56250E-005	  3.36558E-002
  1.87500E-005	  3.36559E-002
  2.18750E-005	  3.36562E-002
  2.50000E-005	  3.36561E-002
  2.81250E-005	  3.33158E-002
  3.12500E-005	  3.36560E-002
  3.43750E-005	  3.30470E-002
  3.75000E-005	  3.36560E-002
  4.06250E-005	  3.29443E-002
  4.37500E-005	  3.30185E-002
  4.68750E-005	  3.35604E-002
  5.00000E-005	  2.36532E-002
  5.62500E-005	  2.36206E-002
  6.25000E-005	  2.35382E-002
  6.87500E-005	  2.35836E-002
  7.50000E-005	  2.34990E-002
  8.12500E-005	  2.36049E-002
  8.75000E-005	  2.35756E-002
  9.37500E-005	  2.34701E-002
  1.00000E-004	  1.66678E-002
  1.12500E-004	  1.65383E-002
  1.25000E-004	  1.67034E-002
  1.37500E-004	  1.66553E-002
  1.50000E-004	  1.66041E-002
  1.62500E-004	  1.67923E-002
  1.75000E-004	  1.67591E-002
  1.87500E-004	  1.67991E-002
  2.00000E-004	  1.18031E-002
  2.25000E-004	  1.18004E-002
  2.50000E-004	  1.18365E-002
  2.75000E-004	  1.18366E-002
  3.00000E-004	  1.18309E-002
  3.25000E-004	  1.18081E-002
  3.50000E-004	  1.17507E-002
  3.75000E-004	  1.17948E-002
  4.00000E-004	  8.37174E-003
  4.50000E-004	  8.31011E-003
  5.00000E-004	  8.33052E-003
  5.50000E-004	  8.34598E-003
  6.00000E-004	  8.33258E-003
  6.50000E-004	  8.30896E-003
  7.00000E-004	  8.37438E-003
  7.50000E-004	  8.35304E-003
  8.00000E-004	  5.92204E-003
  9.00000E-004	  5.92836E-003
  1.00000E-003	  5.94069E-003
  1.10000E-003	  5.93426E-003
  1.20000E-003	  5.91845E-003
  1.30000E-003	  5.93418E-003
  1.40000E-003	  5.92668E-003
  1.50000E-003	  5.92257E-003
  1.60000E-003	  4.22311E-003
  1.80000E-003	  4.21594E-003
  2.00000E-003	  4.21691E-003
  2.20000E-003	  4.21326E-003
  2.40000E-003	  4.21579E-003
  2.60000E-003	  4.21310E-003
  2.80000E-003	  4.21476E-003
  3.00000E-003	  4.21013E-003
  3.20000E-003	  3.02222E-003
  3.60000E-003	  3.02198E-003
  4.00000E-003	  3.01945E-003
  4.40000E-003	  3.01826E-003
  4.80000E-003	  3.01706E-003
  5.20000E-003	  3.01555E-003
  5.60000E-003	  3.00781E-003
  6.00000E-003	  3.00542E-003
  6.40000E-003	  2.18716E-003
  7.20000E-003	  2.18446E-003
  8.00000E-003	  2.18385E-003
  8.80000E-003	  2.17980E-003
  9.60000E-003	  2.17543E-003
  1.04000E-002	  2.17153E-003
  1.12000E-002	  2.17145E-003
  1.20000E-002	  2.16531E-003
  1.28000E-002	  1.61272E-003
  1.44000E-002	  1.60764E-003
  1.60000E-002	  1.60259E-003
  1.76000E-002	  1.59750E-003
  1.92000E-002	  1.59242E-003
  2.08000E-002	  1.58853E-003
  2.24000E-002	  1.58348E-003
  2.40000E-002	  1.57974E-003
  2.56000E-002	  1.21384E-003
  2.88000E-002	  1.20543E-003
  3.20000E-002	  1.19766E-003
  3.52000E-002	  1.18931E-003
  3.84000E-002	  1.18311E-003
  4.16000E-002	  1.17624E-003
  4.48000E-002	  1.16965E-003
  4.80000E-002	  1.16352E-003
  5.12000E-002	  9.29546E-004
  5.76000E-002	  9.17667E-004
  6.40000E-002	  9.07605E-004
  7.04000E-002	  8.97669E-004
  7.68000E-002	  8.88628E-004
  8.32000E-002	  8.80687E-004
  8.96000E-002	  8.73145E-004
  9.60000E-002	  8.66213E-004
  1.02400E-001	  7.17203E-004
  1.15200E-001	  7.05198E-004
  1.28000E-001	  6.94913E-004
  1.40800E-001	  6.86029E-004
  1.53600E-001	  6.78597E-004
  1.66400E-001	  6.72659E-004
  1.79200E-001	  6.68082E-004
  1.92000E-001	  6.64981E-004
  2.04800E-001	  5.66737E-004
  2.30400E-001	  5.61767E-004
  2.56000E-001	  5.57628E-004
  2.81600E-001	  5.54598E-004
  3.07200E-001	  5.52632E-004
  3.32800E-001	  5.51573E-004
  3.58400E-001	  5.47523E-004
  3.84000E-001	  5.47523E-004
  4.09600E-001	  4.78391E-004
  4.60800E-001	  4.78391E-004
  5.12000E-001	  4.78391E-004
  5.63200E-001	  4.78391E-004
  6.14400E-001	  4.78391E-004
  6.65600E-001	  4.78391E-004
  7.16800E-001	  4.78391E-004
  7.68000E-001	  4.78391E-004
  8.19200E-001	  4.28476E-004
  9.21600E-001	  4.28476E-004
  1.02400E+000	  4.28476E-004
  1.12640E+000	  4.28476E-004
  1.22880E+000	  4.28476E-004
  1.33120E+000	  4.28476E-004
  1.43360E+000	  4.28476E-004
  1.53600E+000	  4.28476E-004
  1.63840E+000	  3.63871E-004
  1.84320E+000	  3.63871E-004
  2.04800E+000	  3.63871E-004
  2.25280E+000	  3.63871E-004
  2.45760E+000	  3.63871E-004
  2.66240E+000	  3.63871E-004
  2.86720E+000	  3.63871E-004
  3.07200E+000	  3.63871E-004
  3.27680E+000	  2.91976E-004
  3.68640E+000	  2.91976E-004
  4.09600E+000	  2.91976E-004
  4.50560E+000	  2.91976E-004
  4.91520E+000	  2.91976E-004
  5.32480E+000	  2.91976E-004
  5.73440E+000	  2.91976E-004
  6.14400E+000	  2.91976E-004
  6.55360E+000	  2.22134E-004
  7.37280E+000	  2.22134E-004
  8.19200E+000	  2.22134E-004
  9.01120E+000	  2.22134E-004
  9.83040E+000	  2.22134E-004
  1.06496E+001	  2.22134E-004
  1.14688E+001	  2.22134E-004
  1.22880E+001	  2.22134E-004
  1.31072E+001	  1.62863E-004
  1.47456E+001	  1.62863E-004
  1.63840E+001	  1.62863E-004
  1.80224E+001	  1.62863E-004
  1.96608E+001	  1.62863E-004
  2.12992E+001	  1.62863E-004
  2.29376E+001	  1.62863E-004
  2.45760E+001	  1.62863E-004
  2.62144E+001	  1.17209E-004
  2.94912E+001	  1.17209E-004
  3.27680E+001	  1.17209E-004
  3.60448E+001	  1.17209E-004
  3.93216E+001	  1.17209E-004
  4.25984E+001	  1.17209E-004
  4.58752E+001	  1.17209E-004
  4.91520E+001	  1.17209E-004
  5.24288E+001	  8.36030E-005
  5.89824E+001	  8.36030E-005
  6.55360E+001	  8.36030E-005
  7.20896E+001	  8.36030E-005
  7.86432E+001	  8.36030E-005
  8.51968E+001	  8.36030E-005
  9.17504E+001	  8.36030E-005
  9.83040E+001	  8.36030E-005
  1.04858E+002	  5.93719E-005
  1.17965E+002	  5.93719E-005
  1.31072E+002	  5.93719E-005
  1.44179E+002	  5.93719E-005
  1.57286E+002	  5.93719E-005
  1.70394E+002	  5.93719E-005
  1.83501E+002	  5.93719E-005
  1.96608E+002	  5.93719E-005
  2.09715E+002	  4.20722E-005
  2.35930E+002	  4.20722E-005
  2.62144E+002	  4.20722E-005
  2.88358E+002	  4.20722E-005
  3.14573E+002	  4.20722E-005
  3.40787E+002	  4.20722E-005
  3.67002E+002	  4.20722E-005
  3.93216E+002	  4.20722E-005
  4.19430E+002	  2.97808E-005
  4.71859E+002	  2.97808E-005
  5.24288E+002	  2.97808E-005
  5.76717E+002	  2.97808E-005
  6.29146E+002	  2.97808E-005
  6.81574E+002	  2.97808E-005
  7.34003E+002	  2.97808E-005
  7.86432E+002	  2.97808E-005
  8.38861E+002	  2.10685E-005
  9.43718E+002	  2.10685E-005
  1.04858E+003	  2.10685E-005
  1.15343E+003	  2.10685E-005
  1.25829E+003	  2.10685E-005
  1.36315E+003	  2.10685E-005
  1.46801E+003	  2.10685E-005
  1.57286E+003	  2.10685E-005
  1.67772E+003	  1.49003E-005
  1.88744E+003	  1.49003E-005
  2.09715E+003	  1.49003E-005
  2.30687E+003	  1.49003E-005
  2.51658E+003	  1.49003E-005
  2.72630E+003	  1.49003E-005
  2.93601E+003	  1.49003E-005
  3.14573E+003	  1.49003E-005
  3.35544E+003	  1.05355E-005
  3.77487E+003	  1.05355E-005
  4.19430E+003	  1.05355E-005
  4.61373E+003	  1.05355E-005
  5.03317E+003	  1.05355E-005
  5.45260E+003	  1.05355E-005
  5.87203E+003	  1.05355E-005
  6.29146E+003	  1.05355E-005
  6.71089E+003	  7.44734E-006
  7.54975E+003	  7.44734E-006
  8.38861E+003	  7.44734E-006
  9.22747E+003	  7.44734E-006
  1.00663E+004	  7.44734E-006
  1.09052E+004	  7.44734E-006
  1.17441E+004	  7.44734E-006
