ALV-7004 or ALV-7004/FAST Data
Date :	"3/27/2010"
Time :	"3:03:30 PM"
Samplename : 	"BSA 1 g/l in YCl3 83mM (second repetition)"
SampMemo(0) : 	""
SampMemo(1) : 	""
SampMemo(2) : 	""
SampMemo(3) : 	""
SampMemo(4) : 	""
SampMemo(5) : 	""
SampMemo(6) : 	""
SampMemo(7) : 	""
SampMemo(8) : 	""
SampMemo(9) : 	""
Temperature [K] :	     295.78934
Viscosity [cp]  :	       0.94007
Refractive Index:	       1.33200
Wavelength [nm] :	     632.80000
Angle [°]       :	      70.00000
Duration [s]    :	        70
Runs            :	         1
Mode            :	"C-CH0/1+1/0"
MeanCR0 [kHz]   :	     124.81536
MeanCR1 [kHz]   :	     143.45388
MeanCR2 [kHz]   :	       0.00000
MeanCR3 [kHz]   :	       0.00000

"Correlation"
  3.12500E-006	  9.76864E-001	  9.66551E-001	 -3.00000E+000	 -3.00000E+000
  6.25000E-006	  9.48242E-001	  9.27450E-001	 -3.00000E+000	 -3.00000E+000
  9.37500E-006	  9.52459E-001	  9.77739E-001	 -3.00000E+000	 -3.00000E+000
  1.25000E-005	  9.43739E-001	  9.28600E-001	 -3.00000E+000	 -3.00000E+000
  1.56250E-005	  1.00915E+000	  1.00459E+000	 -3.00000E+000	 -3.00000E+000
  1.87500E-005	  9.94545E-001	  1.02313E+000	 -3.00000E+000	 -3.00000E+000
  2.18750E-005	  9.75551E-001	  9.90438E-001	 -3.00000E+000	 -3.00000E+000
  2.50000E-005	  9.85904E-001	  9.75700E-001	 -3.00000E+000	 -3.00000E+000
  2.81250E-005	  9.73739E-001	  1.00063E+000	 -3.00000E+000	 -3.00000E+000
  3.12500E-005	  1.00078E+000	  9.56382E-001	 -3.00000E+000	 -3.00000E+000
  3.43750E-005	  9.76894E-001	  9.74245E-001	 -3.00000E+000	 -3.00000E+000
  3.75000E-005	  9.56607E-001	  9.37285E-001	 -3.00000E+000	 -3.00000E+000
  4.06250E-005	  9.77086E-001	  9.59836E-001	 -3.00000E+000	  1.74249E+000
  4.37500E-005	  9.61458E-001	  9.72823E-001	 -3.00000E+000	  1.61520E+000
  4.68750E-005	  1.04061E+000	  1.02033E+000	 -3.00000E+000	 -7.36869E-001
  5.00000E-005	  1.01976E+000	  1.02197E+000	 -3.00000E+000	  3.09867E+000
  5.62500E-005	  9.84335E-001	  9.61112E-001	 -3.00000E+000	  1.49286E+000
  6.25000E-005	  9.92897E-001	  9.86718E-001	 -3.00000E+000	  1.47080E+000
  6.87500E-005	  9.77558E-001	  9.78305E-001	 -2.85465E+000	  1.73151E+000
  7.50000E-005	  9.58120E-001	  9.32583E-001	  2.66839E+000	  1.16552E+000
  8.12500E-005	  1.01777E+000	  1.00462E+000	  1.29460E+000	  1.25546E+000
  8.75000E-005	  9.87390E-001	  9.91205E-001	  1.33849E+000	  1.18989E+000
  9.37500E-005	  9.83169E-001	  1.00350E+000	  1.23886E+000	  1.19092E+000
  1.00000E-004	  9.77368E-001	  9.97762E-001	  1.13280E+000	  1.13512E+000
  1.12500E-004	  9.87322E-001	  9.94613E-001	  1.15584E+000	  1.14619E+000
  1.25000E-004	  9.70360E-001	  9.68942E-001	  1.11866E+000	  1.14987E+000
  1.37500E-004	  1.00131E+000	  1.00891E+000	  1.04099E+000	  1.08453E+000
  1.50000E-004	  9.58629E-001	  9.30814E-001	  1.03084E+000	  1.08620E+000
  1.62500E-004	  9.77039E-001	  9.67344E-001	  9.83233E-001	  1.07662E+000
  1.75000E-004	  9.75236E-001	  9.67266E-001	  9.87729E-001	  1.05726E+000
  1.87500E-004	  9.61025E-001	  9.49459E-001	  9.67688E-001	  1.06373E+000
  2.00000E-004	  9.67458E-001	  9.66263E-001	  9.71267E-001	  1.03712E+000
  2.25000E-004	  9.60603E-001	  9.45656E-001	  9.74440E-001	  1.03469E+000
  2.50000E-004	  9.63572E-001	  9.68259E-001	  9.65511E-001	  1.03901E+000
  2.75000E-004	  9.67121E-001	  9.78925E-001	  9.82636E-001	  1.02203E+000
  3.00000E-004	  9.64791E-001	  9.66973E-001	  9.74781E-001	  1.02328E+000
  3.25000E-004	  9.79959E-001	  9.81862E-001	  9.80466E-001	  1.02070E+000
  3.50000E-004	  9.76430E-001	  9.89992E-001	  9.64462E-001	  1.00492E+000
  3.75000E-004	  9.69737E-001	  9.80351E-001	  9.98921E-001	  1.01915E+000
  4.00000E-004	  9.62380E-001	  9.67430E-001	  9.82949E-001	  1.01161E+000
  4.50000E-004	  9.66417E-001	  9.61584E-001	  9.71797E-001	  1.01011E+000
  5.00000E-004	  9.66170E-001	  9.66299E-001	  9.92303E-001	  1.01490E+000
  5.50000E-004	  9.65671E-001	  9.64526E-001	  9.81072E-001	  1.01663E+000
  6.00000E-004	  9.59697E-001	  9.70669E-001	  9.70291E-001	  1.01522E+000
  6.50000E-004	  9.69870E-001	  9.60927E-001	  9.72076E-001	  1.00463E+000
  7.00000E-004	  9.64415E-001	  9.54903E-001	  9.63948E-001	  9.89929E-001
  7.50000E-004	  9.57920E-001	  9.53037E-001	  9.58102E-001	  9.73036E-001
  8.00000E-004	  9.61538E-001	  9.66575E-001	  9.60122E-001	  9.82278E-001
  9.00000E-004	  9.61841E-001	  9.62944E-001	  9.71874E-001	  9.83462E-001
  1.00000E-003	  9.59906E-001	  9.59896E-001	  9.57147E-001	  9.74313E-001
  1.10000E-003	  9.58701E-001	  9.61084E-001	  9.58112E-001	  9.82215E-001
  1.20000E-003	  9.47558E-001	  9.45527E-001	  9.62917E-001	  9.69558E-001
  1.30000E-003	  9.53586E-001	  9.53199E-001	  9.52266E-001	  9.80125E-001
  1.40000E-003	  9.53766E-001	  9.53589E-001	  9.55902E-001	  9.75058E-001
  1.50000E-003	  9.50881E-001	  9.58437E-001	  9.47853E-001	  9.75267E-001
  1.60000E-003	  9.46832E-001	  9.49186E-001	  9.41684E-001	  9.69486E-001
  1.80000E-003	  9.45015E-001	  9.39051E-001	  9.43833E-001	  9.65873E-001
  2.00000E-003	  9.43801E-001	  9.42087E-001	  9.44458E-001	  9.58802E-001
  2.20000E-003	  9.35916E-001	  9.39526E-001	  9.37853E-001	  9.52400E-001
  2.40000E-003	  9.35169E-001	  9.32437E-001	  9.34365E-001	  9.51928E-001
  2.60000E-003	  9.24193E-001	  9.26370E-001	  9.37309E-001	  9.49446E-001
  2.80000E-003	  9.24710E-001	  9.21971E-001	  9.38956E-001	  9.41601E-001
  3.00000E-003	  9.26885E-001	  9.22407E-001	  9.28553E-001	  9.42376E-001
  3.20000E-003	  9.21315E-001	  9.18511E-001	  9.23649E-001	  9.36961E-001
  3.60000E-003	  9.14130E-001	  9.13075E-001	  9.22144E-001	  9.23658E-001
  4.00000E-003	  9.05393E-001	  9.07352E-001	  9.17084E-001	  9.25037E-001
  4.40000E-003	  8.98291E-001	  8.94552E-001	  9.10361E-001	  9.12590E-001
  4.80000E-003	  8.92698E-001	  8.88882E-001	  8.98626E-001	  9.07298E-001
  5.20000E-003	  8.86968E-001	  8.82171E-001	  8.96389E-001	  9.00526E-001
  5.60000E-003	  8.83343E-001	  8.81879E-001	  8.88993E-001	  8.99784E-001
  6.00000E-003	  8.71692E-001	  8.71118E-001	  8.83161E-001	  8.90321E-001
  6.40000E-003	  8.69565E-001	  8.70424E-001	  8.78689E-001	  8.81950E-001
  7.20000E-003	  8.58005E-001	  8.58857E-001	  8.69033E-001	  8.72081E-001
  8.00000E-003	  8.46629E-001	  8.45817E-001	  8.57375E-001	  8.57359E-001
  8.80000E-003	  8.35643E-001	  8.36024E-001	  8.45194E-001	  8.47823E-001
  9.60000E-003	  8.22866E-001	  8.21251E-001	  8.36110E-001	  8.36132E-001
  1.04000E-002	  8.14192E-001	  8.14407E-001	  8.21196E-001	  8.23649E-001
  1.12000E-002	  8.01987E-001	  8.03468E-001	  8.15316E-001	  8.15338E-001
  1.20000E-002	  7.88423E-001	  7.86542E-001	  8.05402E-001	  8.01547E-001
  1.28000E-002	  7.78992E-001	  7.77974E-001	  7.93187E-001	  7.90724E-001
  1.44000E-002	  7.60293E-001	  7.59454E-001	  7.72168E-001	  7.71919E-001
  1.60000E-002	  7.38624E-001	  7.38184E-001	  7.51266E-001	  7.50543E-001
  1.76000E-002	  7.21803E-001	  7.21321E-001	  7.30941E-001	  7.32356E-001
  1.92000E-002	  7.02422E-001	  7.01742E-001	  7.17099E-001	  7.12829E-001
  2.08000E-002	  6.83752E-001	  6.85635E-001	  6.98211E-001	  6.96653E-001
  2.24000E-002	  6.68951E-001	  6.69510E-001	  6.80849E-001	  6.79992E-001
  2.40000E-002	  6.49970E-001	  6.49459E-001	  6.60273E-001	  6.62239E-001
  2.56000E-002	  6.34639E-001	  6.34645E-001	  6.44640E-001	  6.44995E-001
  2.88000E-002	  6.02373E-001	  6.03553E-001	  6.11999E-001	  6.11188E-001
  3.20000E-002	  5.72893E-001	  5.72779E-001	  5.81451E-001	  5.82934E-001
  3.52000E-002	  5.44558E-001	  5.44052E-001	  5.52471E-001	  5.52854E-001
  3.84000E-002	  5.18665E-001	  5.19610E-001	  5.26237E-001	  5.24904E-001
  4.16000E-002	  4.91704E-001	  4.91215E-001	  5.00032E-001	  4.99394E-001
  4.48000E-002	  4.68579E-001	  4.68988E-001	  4.76444E-001	  4.76277E-001
  4.80000E-002	  4.46000E-001	  4.47105E-001	  4.53668E-001	  4.52321E-001
  5.12000E-002	  4.23957E-001	  4.24755E-001	  4.29849E-001	  4.31144E-001
  5.76000E-002	  3.84485E-001	  3.85023E-001	  3.92001E-001	  3.90305E-001
  6.40000E-002	  3.48137E-001	  3.47598E-001	  3.54478E-001	  3.51923E-001
  7.04000E-002	  3.15384E-001	  3.15443E-001	  3.21176E-001	  3.21114E-001
  7.68000E-002	  2.87527E-001	  2.87871E-001	  2.92898E-001	  2.90513E-001
  8.32000E-002	  2.60650E-001	  2.61181E-001	  2.64654E-001	  2.62204E-001
  8.96000E-002	  2.37314E-001	  2.37932E-001	  2.40774E-001	  2.39571E-001
  9.60000E-002	  2.15381E-001	  2.15615E-001	  2.19713E-001	  2.18465E-001
  1.02400E-001	  1.96154E-001	  1.95831E-001	  2.00609E-001	  1.99987E-001
  1.15200E-001	  1.63457E-001	  1.63332E-001	  1.66211E-001	  1.65659E-001
  1.28000E-001	  1.36171E-001	  1.36469E-001	  1.39474E-001	  1.38377E-001
  1.40800E-001	  1.14847E-001	  1.14649E-001	  1.16340E-001	  1.17069E-001
  1.53600E-001	  9.63704E-002	  9.63846E-002	  9.86885E-002	  9.82156E-002
  1.66400E-001	  8.05666E-002	  8.10803E-002	  8.28347E-002	  8.25889E-002
  1.79200E-001	  6.89552E-002	  6.86805E-002	  7.00512E-002	  7.00245E-002
  1.92000E-001	  5.85624E-002	  5.82566E-002	  5.92339E-002	  5.97336E-002
  2.04800E-001	  4.99570E-002	  4.99964E-002	  5.03457E-002	  5.07638E-002
  2.30400E-001	  3.63913E-002	  3.62087E-002	  3.71498E-002	  3.62918E-002
  2.56000E-001	  2.67627E-002	  2.69329E-002	  2.72195E-002	  2.74993E-002
  2.81600E-001	  1.97990E-002	  1.91088E-002	  1.97374E-002	  2.08293E-002
  3.07200E-001	  1.54847E-002	  1.49976E-002	  1.50573E-002	  1.53098E-002
  3.32800E-001	  1.11620E-002	  1.06412E-002	  1.18965E-002	  1.15335E-002
  3.58400E-001	  8.48554E-003	  8.23084E-003	  8.47337E-003	  8.53341E-003
  3.84000E-001	  6.38110E-003	  5.93817E-003	  6.37396E-003	  6.86640E-003
  4.09600E-001	  4.96844E-003	  4.43189E-003	  5.04417E-003	  5.50519E-003
  4.60800E-001	  2.76332E-003	  1.56189E-003	  3.02721E-003	  2.91782E-003
  5.12000E-001	  1.22055E-003	  9.80691E-004	  1.09065E-003	  1.75148E-003
  5.63200E-001	  3.19240E-004	  2.76366E-004	 -1.56413E-004	  7.44113E-004
  6.14400E-001	  7.75841E-005	 -4.86668E-004	 -3.71619E-004	  8.08830E-004
  6.65600E-001	  3.16015E-004	 -3.10713E-004	  5.47602E-004	  7.39251E-005
  7.16800E-001	  8.25634E-004	  3.90899E-004	  1.26563E-003	  8.76161E-004
  7.68000E-001	  7.12581E-004	  7.09059E-004	  1.66852E-004	  1.03773E-003
  8.19200E-001	  2.69815E-004	  2.19269E-004	  1.88509E-004	 -1.05026E-004
  9.21600E-001	 -1.77744E-004	 -2.08191E-004	 -5.71334E-004	 -1.73446E-004
  1.02400E+000	  4.97393E-004	  4.62774E-004	 -9.19229E-005	  6.09370E-004
  1.12640E+000	 -1.28495E-004	 -5.05485E-004	 -5.91847E-005	  4.06092E-005
  1.22880E+000	 -1.48321E-004	 -7.67664E-004	 -9.16148E-004	  7.03856E-004
  1.33120E+000	  7.16380E-004	 -3.21405E-005	  2.56595E-004	  1.02127E-003
  1.43360E+000	  5.50965E-004	  4.96460E-004	  2.46444E-005	  8.22884E-004
  1.53600E+000	  3.96016E-004	  1.02370E-004	 -1.14199E-004	  3.50604E-004
  1.63840E+000	 -7.35256E-004	 -1.03997E-003	 -5.69365E-004	 -6.91943E-004
  1.84320E+000	  1.58748E-004	 -6.29323E-005	 -1.84261E-005	  5.62390E-004
  2.04800E+000	 -2.84794E-004	 -2.07058E-004	 -6.24239E-004	  4.93846E-005
  2.25280E+000	 -1.15432E-003	 -5.04715E-004	 -1.09633E-003	 -1.12877E-003
  2.45760E+000	 -3.48036E-004	  1.22315E-004	 -3.20955E-004	 -3.21022E-004
  2.66240E+000	 -6.79414E-004	 -4.82911E-004	 -8.40766E-004	 -3.19699E-004
  2.86720E+000	  1.58967E-004	  2.41399E-004	  1.33395E-004	  1.35646E-004
  3.07200E+000	  5.06139E-004	  8.03294E-004	  2.47819E-004	  8.99836E-004
  3.27680E+000	  1.74108E-004	 -4.11751E-006	 -1.79754E-004	  4.96320E-004
  3.68640E+000	 -2.17017E-004	 -9.18440E-005	 -4.05892E-004	 -4.40159E-004
  4.09600E+000	  1.76408E-005	  1.57751E-004	  2.15933E-004	 -3.84699E-005
  4.50560E+000	 -5.05199E-005	 -1.12414E-004	 -1.14396E-004	 -8.03227E-005
  4.91520E+000	 -6.06912E-004	 -6.61335E-004	 -4.62234E-004	 -7.15515E-004
  5.32480E+000	 -4.83648E-004	 -1.77465E-004	 -7.88684E-004	 -2.62502E-004
  5.73440E+000	 -4.61590E-004	 -5.49984E-004	 -4.30614E-004	 -6.14825E-004
  6.14400E+000	 -2.75047E-004	 -4.62927E-004	 -2.96635E-004	 -3.26189E-004
  6.55360E+000	  4.61139E-005	 -1.47813E-004	 -1.07361E-004	  1.06170E-004
  7.37280E+000	 -1.62095E-004	 -2.71368E-004	 -2.21341E-004	 -2.32226E-004
  8.19200E+000	 -1.42950E-004	 -2.70557E-004	 -1.40358E-004	 -2.95660E-005
  9.01120E+000	  4.83150E-004	  2.79797E-004	  4.12148E-004	  4.47855E-004
  9.83040E+000	 -4.82278E-004	 -5.89734E-004	 -4.90940E-004	 -4.82190E-004
  1.06496E+001	  2.80912E-004	  3.08367E-004	  3.76456E-004	  3.13711E-004
  1.14688E+001	  3.54375E-004	  4.62027E-004	  2.18007E-004	  4.17420E-004
  1.22880E+001	  2.99705E-004	  3.25900E-004	  5.81737E-005	  3.51213E-004
  1.31072E+001	 -6.09907E-007	 -7.58240E-005	 -2.29285E-004	  1.08732E-004
  1.47456E+001	  1.76500E-004	  2.36302E-004	 -8.01567E-005	  3.58987E-004
  1.63840E+001	 -2.63313E-004	 -3.74167E-004	 -2.30478E-004	 -2.32071E-004
  1.80224E+001	  1.77339E-004	 -9.61938E-006	  3.22277E-004	  9.96984E-005
  1.96608E+001	  4.40107E-004	  5.96416E-004	  3.34265E-004	  4.29269E-004
  2.12992E+001	  1.52491E-004	  2.04344E-004	  9.76399E-005	  2.18285E-004
  2.29376E+001	 -1.32993E-004	 -8.48693E-005	 -6.38015E-005	 -2.36044E-004
  2.45760E+001	  2.60779E-004	  2.05655E-004	  6.22998E-005	  3.86555E-004
  2.62144E+001	  1.61287E-004	  8.78366E-005	  8.94148E-006	  2.52579E-004
  2.94912E+001	  2.43484E-004	  1.91174E-004	  2.52209E-004	  3.13038E-004
  3.27680E+001	 -1.71907E-004	 -2.73159E-004	 -1.68281E-004	 -2.22208E-004
  3.60448E+001	 -1.33349E-004	 -2.84278E-005	 -1.33831E-004	 -3.24029E-005
  3.93216E+001	  2.95078E-005	 -4.14283E-005	 -8.06674E-005	  1.01847E-004
  4.25984E+001	  1.06540E-004	 -5.44192E-005	  1.05806E-004	  1.51455E-004
  4.58752E+001	 -1.05674E-004	 -2.63297E-005	 -1.79600E-004	 -1.05814E-004
  4.91520E+001	 -2.72475E-005	 -1.71147E-004	  1.19619E-005	 -5.45826E-005
  5.24288E+001	  2.60106E-005	  1.60556E-005	  4.72982E-005	  1.73932E-005
  5.89824E+001	  5.89636E-005	 -6.11978E-005	 -1.31305E-005	  6.77046E-005
  6.55360E+001	  4.28219E-005	  3.63853E-005	  5.99663E-005	  6.03286E-005
  7.20896E+001	  1.04552E-005	 -1.24623E-005	  4.15995E-005	  5.42269E-005
  7.86432E+001	 -1.27611E-004	 -1.34166E-004	 -1.76191E-004	 -9.22201E-005
  8.51968E+001	 -1.24608E-004	 -1.29182E-004	 -4.09664E-005	 -1.65608E-004
  9.17504E+001	 -1.61941E-005	  4.32403E-005	 -4.42607E-005	  8.08395E-005
  9.83040E+001	 -1.02199E-004	 -7.34392E-005	 -4.57430E-005	 -1.38399E-004
  1.04858E+002	 -5.88249E-005	 -8.29914E-005	 -3.47881E-005	 -6.73112E-005
  1.17965E+002	  4.09520E-005	  4.49158E-005	 -4.55690E-006	  4.72737E-005
  1.31072E+002	 -5.15096E-005	 -3.92471E-005	 -1.00571E-004	  1.31640E-006
  1.44179E+002	  1.49590E-005	 -1.51591E-007	 -2.47914E-005	  2.90135E-005
  1.57286E+002	 -4.30388E-005	 -3.11991E-005	  6.32863E-006	 -7.72729E-005
  1.70394E+002	  5.14478E-005	  1.08530E-004	  1.54951E-005	  1.00231E-004
  1.83501E+002	 -1.52560E-004	 -1.23739E-004	 -1.89993E-004	 -1.36788E-004
  1.96608E+002	 -2.75116E-005	 -5.41823E-005	  4.95871E-006	 -5.03704E-005
  2.09715E+002	  3.62101E-006	 -1.21924E-005	  1.86887E-005	 -1.57475E-005
  2.35930E+002	 -5.07362E-006	  3.99357E-005	 -8.94690E-006	 -1.40746E-005
  2.62144E+002	  4.87015E-005	  4.65097E-005	  6.38775E-005	  1.75124E-005
  2.88358E+002	  1.05600E-004	  1.01663E-004	  7.87772E-005	  1.22864E-004
  3.14573E+002	 -5.95386E-005	 -5.73437E-005	 -7.04225E-005	 -3.08658E-005
  3.40787E+002	  4.77442E-005	  3.98538E-005	  5.59800E-005	  6.45324E-005
  3.67002E+002	 -1.07883E-004	 -1.37329E-004	 -1.14764E-004	 -9.33201E-005
  3.93216E+002	  4.89845E-005	  7.19703E-005	  1.57175E-005	  9.10154E-005
  4.19430E+002	 -9.81530E-007	 -7.22840E-006	 -1.80943E-005	  1.97473E-005
  4.71859E+002	 -3.01848E-005	 -2.42500E-005	 -2.19687E-005	 -3.04721E-005
  5.24288E+002	  2.11180E-005	 -1.66368E-006	  4.42211E-005	 -2.32027E-005
  5.76717E+002	  3.25363E-005	  2.97571E-005	  4.37649E-005	  5.82079E-006
  6.29146E+002	  4.70356E-005	  2.91667E-005	  2.93904E-005	  6.32058E-005
  6.81574E+002	  1.97412E-005	  1.16317E-005	  8.88777E-006	  3.49940E-005
  7.34003E+002	 -5.39249E-005	 -6.86977E-005	 -8.09230E-005	 -3.44588E-005
  7.86432E+002	 -3.73909E-005	 -3.96089E-005	 -6.32972E-005	  1.99596E-007
  8.38861E+002	  2.25411E-005	  1.11553E-005	  2.34363E-005	  3.76918E-005
  9.43718E+002	 -4.80350E-005	 -5.48549E-005	 -2.72121E-005	 -6.28050E-005
  1.04858E+003	 -1.62709E-005	 -2.24622E-005	 -2.36326E-005	 -9.24901E-006
  1.15343E+003	  4.70245E-005	  4.12138E-005	  3.97231E-005	  3.99726E-005
  1.25829E+003	 -5.16247E-006	 -2.68966E-005	  2.90648E-006	 -2.78476E-005
  1.36315E+003	 -1.22528E-005	 -9.61525E-006	 -4.01342E-006	 -3.65632E-005
  1.46801E+003	 -1.41954E-005	 -1.42183E-005	  1.71094E-005	 -4.01791E-005
  1.57286E+003	 -3.15626E-005	 -3.73185E-005	 -3.39103E-005	 -2.55123E-005
  1.67772E+003	 -2.06109E-006	 -6.66655E-006	 -2.46850E-006	 -2.78975E-006
  1.88744E+003	 -6.50443E-007	  1.47790E-005	 -1.70549E-006	 -2.73000E-006
  2.09715E+003	 -1.34574E-005	 -4.48724E-006	 -1.74972E-005	 -8.76270E-006
  2.30687E+003	  1.21256E-005	  1.37449E-005	  2.68647E-005	  3.41467E-006
  2.51658E+003	  1.11316E-005	 -2.29446E-006	  8.57241E-006	  2.22761E-005
  2.72630E+003	 -4.60855E-006	 -6.14295E-007	 -6.76333E-007	 -8.22256E-006
  2.93601E+003	  2.10472E-005	  1.55676E-005	  5.65832E-006	  1.43960E-005
  3.14573E+003	 -1.07295E-005	 -2.01953E-005	  1.77793E-006	 -1.90948E-005
  3.35544E+003	  1.09933E-006	 -9.15218E-006	  1.03680E-005	 -4.79602E-006
  3.77487E+003	  6.20804E-006	  1.20021E-005	  3.02571E-006	  2.61691E-006
  4.19430E+003	 -6.06409E-006	  3.19146E-008	 -7.34648E-006	 -8.66945E-006
  4.61373E+003	  9.52271E-006	  1.62044E-005	  2.07045E-005	  4.08910E-006
  5.03317E+003	 -2.82685E-006	  5.52754E-006	 -4.78767E-006	  1.76342E-006
  5.45260E+003	  5.32356E-007	 -8.91233E-006	 -1.18639E-005	  1.56831E-005
  5.87203E+003	 -5.78407E-006	 -6.72779E-006	  1.02322E-005	 -1.32990E-005
  6.29146E+003	 -6.07065E-006	 -9.91673E-006	 -4.09533E-006	 -1.62110E-005
  6.71089E+003	 -5.31420E-006	 -1.35561E-005	 -4.67206E-006	 -1.34756E-005
  7.54975E+003	 -2.04809E-005	 -2.27795E-005	 -1.86629E-005	 -2.68336E-005
  8.38861E+003	 -1.35790E-005	 -9.01063E-006	 -7.27426E-006	 -1.79614E-005
  9.22747E+003	 -2.56548E-005	 -2.84852E-005	 -1.65804E-005	 -3.61031E-005
  1.00663E+004	 -1.60397E-005	 -1.77494E-005	 -1.82333E-005	 -6.62038E-006
  1.09052E+004	 -9.44043E-006	 -1.64078E-006	 -1.01516E-005	 -4.15031E-006
  1.17441E+004	  1.21650E-005	  1.99607E-005	  7.74181E-006	  1.47339E-005

"Count Rate"
       0.27344	     125.30785	     145.80067	     125.30785	     145.80067
       0.54688	     124.10497	     142.62712	     124.10497	     142.62712
       0.82031	     121.53835	     139.74240	     121.53835	     139.74240
       1.09375	     126.79957	     144.59048	     126.79957	     144.59048
       1.36719	     126.37180	     145.78970	     126.37180	     145.78970
       1.64063	     125.41754	     146.21382	     125.41754	     146.21382
       1.91406	     123.25309	     139.65100	     123.25309	     139.65100
       2.18750	     124.86546	     142.16644	     124.86546	     142.16644
       2.46094	     122.11602	     140.45171	     122.11602	     140.45171
       2.73438	     122.94962	     142.11526	     122.94962	     142.11526
       3.00781	     123.68086	     144.24681	     123.68086	     144.24681
       3.28125	     124.28413	     141.90320	     124.28413	     141.90320
       3.55469	     123.20190	     142.20667	     123.20190	     142.20667
       3.82813	     124.41575	     144.64168	     124.41575	     144.64168
       4.10156	     123.73570	     142.91231	     123.73570	     142.91231
       4.37500	     124.27682	     144.82448	     124.27682	     144.82448
       4.64844	     121.51641	     140.15555	     121.51641	     140.15555
       4.92188	     125.42120	     144.57951	     125.42120	     144.57951
       5.19531	     123.80151	     142.52475	     123.80151	     142.52475
       5.46875	     126.24749	     143.00737	     126.24749	     143.00737
       5.74219	     125.39926	     143.46805	     125.39926	     143.46805
       6.01563	     121.66631	     140.17749	     121.66631	     140.17749
       6.28906	     124.33166	     143.35471	     124.33166	     143.35471
       6.56250	     127.07378	     145.76778	     127.07378	     145.76778
       6.83594	     124.50716	     143.23770	     124.50716	     143.23770
       7.10938	     125.02267	     144.04572	     125.02267	     144.04572
       7.38281	     125.87090	     143.78247	     125.87090	     143.78247
       7.65625	     124.90933	     144.92320	     124.90933	     144.92320
       7.92969	     125.15064	     142.07138	     125.15064	     142.07138
       8.20313	     125.45410	     143.65085	     125.45410	     143.65085
       8.47656	     125.25667	     144.87932	     125.25667	     144.87932
       8.75000	     124.36091	     142.68929	     124.36091	     142.68929
       9.02344	     127.64049	     146.11511	     127.64049	     146.11511
       9.29688	     124.00991	     142.87575	     124.00991	     142.87575
       9.57031	     126.31696	     144.72577	     126.31696	     144.72577
       9.84375	     123.47977	     141.84470	     123.47977	     141.84470
      10.11719	     124.99708	     141.77524	     124.99708	     141.77524
      10.39063	     124.31703	     142.29807	     124.31703	     142.29807
      10.66406	     126.03909	     142.82455	     126.03909	     142.82455
      10.93750	     121.94418	     140.86119	     121.94418	     140.86119
      11.21094	     123.44321	     142.23592	     123.44321	     142.23592
      11.48438	     125.49066	     145.04019	     125.49066	     145.04019
      11.75781	     128.55453	     149.54825	     128.55453	     149.54825
      12.03125	     124.44500	     143.38396	     124.44500	     143.38396
      12.30469	     125.18355	     146.34180	     125.18355	     146.34180
      12.57813	     124.55468	     141.14272	     124.55468	     141.14272
      12.85156	     122.37926	     142.78433	     122.37926	     142.78433
      13.12500	     122.86188	     140.17018	     122.86188	     140.17018
      13.39844	     124.86911	     142.45163	     124.86911	     142.45163
      13.67188	     125.08849	     143.26695	     125.08849	     143.26695
      13.94531	     123.59676	     141.41327	     123.59676	     141.41327
      14.21875	     126.21458	     146.48438	     126.21458	     146.48438
      14.49219	     127.26025	     145.33269	     127.26025	     145.33269
      14.76563	     127.41015	     142.78433	     127.41015	     142.78433
      15.03906	     126.72645	     145.78970	     126.72645	     145.78970
      15.31250	     124.22197	     140.62720	     124.22197	     140.62720
      15.58594	     124.07938	     144.78792	     124.07938	     144.78792
      15.85938	     125.06654	     142.07504	     125.06654	     142.07504
      16.13281	     126.74107	     143.58139	     126.74107	     143.58139
      16.40625	     123.81979	     142.87209	     123.81979	     142.87209
      16.67969	     122.65714	     139.71681	     122.65714	     139.71681
      16.95313	     125.26032	     144.47348	     125.26032	     144.47348
      17.22656	     123.23115	     141.53027	     123.23115	     141.53027
      17.50000	     126.21824	     144.53564	     126.21824	     144.53564
      17.77344	     123.65527	     142.90865	     123.65527	     142.90865
      18.04688	     126.56557	     144.90492	     126.56557	     144.90492
      18.32031	     124.15616	     141.13907	     124.15616	     141.13907
      18.59375	     123.62601	     140.74054	     123.62601	     140.74054
      18.86719	     124.40112	     142.56497	     124.40112	     142.56497
      19.14063	     127.56005	     146.03833	     127.56005	     146.03833
      19.41406	     126.24749	     144.44789	     126.24749	     144.44789
      19.68750	     125.36636	     144.55026	     125.36636	     144.55026
      19.96094	     124.61684	     142.93790	     124.61684	     142.93790
      20.23438	     127.32971	     145.81165	     127.32971	     145.81165
      20.50781	     124.15250	     142.30173	     124.15250	     142.30173
      20.78125	     128.93112	     145.63615	     128.93112	     145.63615
      21.05469	     124.31703	     142.24323	     124.31703	     142.24323
      21.32813	     124.09035	     143.85559	     124.09035	     143.85559
      21.60156	     125.15795	     143.31082	     125.15795	     143.31082
      21.87500	     124.78502	     144.12250	     124.78502	     144.12250
      22.14844	     123.47611	     142.64906	     123.47611	     142.64906
      22.42188	     122.46701	     139.56691	     122.46701	     139.56691
      22.69531	     122.69370	     141.52661	     122.69370	     141.52661
      22.96875	     123.95142	     142.48453	     123.95142	     142.48453
      23.24219	     124.06476	     144.50273	     124.06476	     144.50273
      23.51563	     124.81062	     144.66360	     124.81062	     144.66360
      23.78906	     125.38464	     146.41856	     125.38464	     146.41856
      24.06250	     124.21101	     144.46983	     124.21101	     144.46983
      24.33594	     127.41015	     145.21935	     127.41015	     145.21935
      24.60938	     124.93127	     143.43147	     124.93127	     143.43147
      24.88281	     126.06103	     146.79150	     126.06103	     146.79150
      25.15625	     126.94947	     145.15720	     126.94947	     145.15720
      25.42969	     124.81427	     144.56854	     124.81427	     144.56854
      25.70313	     125.96597	     145.41312	     125.96597	     145.41312
      25.97656	     122.95694	     141.01840	     122.95694	     141.01840
      26.25000	     123.04469	     141.77888	     123.04469	     141.77888
      26.52344	     122.39389	     141.78621	     122.39389	     141.78621
      26.79688	     128.00610	     146.11511	     128.00610	     146.11511
      27.07031	     125.75391	     143.63623	     125.75391	     143.63623
      27.34375	     124.89105	     142.96349	     124.89105	     142.96349
      27.61719	     126.21093	     145.13892	     126.21093	     145.13892
      27.89063	     123.56752	     143.49728	     123.56752	     143.49728
      28.16406	     126.01715	     144.32358	     126.01715	     144.32358
      28.43750	     124.43768	     142.77338	     124.43768	     142.77338
      28.71094	     126.55460	     145.95424	     126.55460	     145.95424
      28.98438	     125.55647	     144.18100	     125.55647	     144.18100
      29.25781	     120.97895	     139.63272	     120.97895	     139.63272
      29.53125	     125.66982	     142.38216	     125.66982	     142.38216
      29.80469	     123.37740	     141.89223	     123.37740	     141.89223
      30.07813	     123.92948	     142.88670	     123.92948	     142.88670
      30.35156	     127.58930	     146.49535	     127.58930	     146.49535
      30.62500	     126.33158	     144.38574	     126.33158	     144.38574
      30.89844	     125.51260	     142.96715	     125.51260	     142.96715
      31.17188	     123.14706	     141.58511	     123.14706	     141.58511
      31.44531	     121.44328	     141.31822	     121.44328	     141.31822
      31.71875	     124.92396	     143.79710	     124.92396	     143.79710
      31.99219	     122.97522	     142.34560	     122.97522	     142.34560
      32.26563	     125.46507	     144.75502	     125.46507	     144.75502
      32.53906	     123.59311	     142.83553	     123.59311	     142.83553
      32.81250	     123.12512	     143.44977	     123.12512	     143.44977
      33.08594	     125.03730	     142.49916	     125.03730	     142.49916
      33.35938	     125.62228	     144.25046	     125.62228	     144.25046
      33.63281	     123.85635	     141.95073	     123.85635	     141.95073
      33.90625	     121.09960	     139.30367	     121.09960	     139.30367
      34.17969	     124.02820	     142.26881	     124.02820	     142.26881
      34.45313	     123.38471	     141.32187	     123.38471	     141.32187
      34.72656	     120.26600	     138.81009	     120.26600	     138.81009
      35.00000	     124.39015	     143.45708	     124.39015	     143.45708
      35.27344	     126.79591	     145.04385	     126.79591	     145.04385
      35.54688	     123.82345	     142.30537	     123.82345	     142.30537
      35.82031	     125.08849	     143.36201	     125.08849	     143.36201
      36.09375	     122.29151	     141.14638	     122.29151	     141.14638
      36.36719	     121.45060	     140.04953	     121.45060	     140.04953
      36.64063	     125.70638	     145.00363	     125.70638	     145.00363
      36.91406	     121.85278	     141.64726	     121.85278	     141.64726
      37.18750	     124.42672	     145.55571	     124.42672	     145.55571
      37.46094	     123.68452	     143.18652	     123.68452	     143.18652
      37.73438	     124.89105	     141.49371	     124.89105	     141.49371
      38.00781	     126.51804	     144.94879	     126.51804	     144.94879
      38.28125	     124.83620	     142.95984	     124.83620	     142.95984
      38.55469	     124.92396	     142.89037	     124.92396	     142.89037
      38.82813	     122.81435	     141.93611	     122.81435	     141.93611
      39.10156	     126.04640	     143.85559	     126.04640	     143.85559
      39.37500	     123.83442	     141.03304	     123.83442	     141.03304
      39.64844	     125.91843	     144.52467	     125.91843	     144.52467
      39.92188	     125.47969	     142.08601	     125.47969	     142.08601
      40.19531	     125.82337	     146.32716	     125.82337	     146.32716
      40.46875	     122.66444	     142.79897	     122.66444	     142.79897
      40.74219	     126.44127	     145.95789	     126.44127	     145.95789
      41.01563	     123.00813	     141.83008	     123.00813	     141.83008
      41.28906	     129.25285	     148.61958	     129.25285	     148.61958
      41.56250	     125.98790	     145.33635	     125.98790	     145.33635
      41.83594	     126.96775	     145.87746	     126.96775	     145.87746
      42.10938	     123.03006	     142.02385	     123.03006	     142.02385
      42.38281	     123.90023	     142.96349	     123.90023	     142.96349
      42.65625	     127.38456	     147.08398	     127.38456	     147.08398
      42.92969	     124.33531	     144.33090	     124.33531	     144.33090
      43.20313	     121.02648	     140.36031	     121.02648	     140.36031
      43.47656	     126.23286	     145.60324	     126.23286	     145.60324
      43.75000	     125.24935	     143.02565	     125.24935	     143.02565
      44.02344	     124.49253	     145.24493	     124.49253	     145.24493
      44.29688	     125.10677	     143.15727	     125.10677	     143.15727
      44.57031	     126.35718	     144.62340	     126.35718	     144.62340
      44.84375	     123.65892	     143.09146	     123.65892	     143.09146
      45.11719	     123.95507	     144.21756	     123.95507	     144.21756
      45.39063	     122.08677	     139.81554	     122.08677	     139.81554
      45.66406	     125.47969	     143.12802	     125.47969	     143.12802
      45.93750	     126.21824	     145.61421	     126.21824	     145.61421
      46.21094	     123.99895	     141.49736	     123.99895	     141.49736
      46.48438	     125.17258	     142.22861	     125.17258	     142.22861
      46.75781	     126.02446	     144.00549	     126.02446	     144.00549
      47.03125	     126.53267	     144.95610	     126.53267	     144.95610
      47.30469	     124.21466	     142.86842	     124.21466	     142.86842
      47.57813	     124.14520	     144.64899	     124.14520	     144.64899
      47.85156	     127.00797	     144.62704	     127.00797	     144.62704
      48.12500	     125.16526	     144.01282	     125.16526	     144.01282
      48.39844	     128.44119	     146.10414	     128.44119	     146.10414
      48.67188	     123.43955	     142.93790	     123.43955	     142.93790
      48.94531	     127.42843	     146.61235	     127.42843	     146.61235
      49.21875	     125.00073	     141.78255	     125.00073	     141.78255
      49.49219	     123.82710	     140.98184	     123.82710	     140.98184
      49.76563	     122.89478	     142.49550	     122.89478	     142.49550
      50.03906	     124.85815	     141.69846	     124.85815	     141.69846
      50.31250	     127.84889	     146.09683	     127.84889	     146.09683
      50.58594	     125.09214	     143.63988	     125.09214	     143.63988
      50.85938	     123.29696	     142.37485	     123.29696	     142.37485
      51.13281	     124.89105	     143.87387	     124.89105	     143.87387
      51.40625	     125.26764	     144.35283	     125.26764	     144.35283
      51.67969	     125.95134	     144.67458	     125.95134	     144.67458
      51.95313	     126.11587	     144.00185	     126.11587	     144.00185
      52.22656	     124.92761	     144.04938	     124.92761	     144.04938
      52.50000	     124.33166	     143.09877	     124.33166	     143.09877
      52.77344	     126.18899	     145.56302	     126.18899	     145.56302
      53.04688	     122.14527	     142.81358	     122.14527	     142.81358
      53.32031	     127.41015	     147.55563	     127.41015	     147.55563
      53.59375	     123.69183	     143.54482	     123.69183	     143.54482
      53.86719	     125.68810	     143.56310	     125.68810	     143.56310
      54.14063	     124.10863	     140.58698	     124.10863	     140.58698
      54.41406	     123.13975	     141.24875	     123.13975	     141.24875
      54.68750	     123.36277	     141.15735	     123.36277	     141.15735
      54.96094	     123.65527	     142.06773	     123.65527	     142.06773
      55.23438	     127.20906	     145.16817	     127.20906	     145.16817
      55.50781	     125.60766	     145.78606	     125.60766	     145.78606
      55.78125	     125.99155	     143.46072	     125.99155	     143.46072
      56.05469	     127.68802	     146.19188	     127.68802	     146.19188
      56.32813	     126.93119	     143.54848	     126.93119	     143.54848
      56.60156	     123.32256	     142.08966	     123.32256	     142.08966
      56.87500	     120.51827	     139.11720	     120.51827	     139.11720
      57.14844	     129.61847	     148.01266	     129.61847	     148.01266
      57.42188	     121.85278	     141.20488	     121.85278	     141.20488
      57.69531	     126.87635	     147.21196	     126.87635	     147.21196
      57.96875	     123.44686	     140.92700	     123.44686	     140.92700
      58.24219	     127.46865	     144.96707	     127.46865	     144.96707
      58.51563	     126.29502	     145.99446	     126.29502	     145.99446
      58.78906	     124.89105	     143.44611	     124.89105	     143.44611
      59.06250	     121.44328	     139.92886	     121.44328	     139.92886
      59.33594	     122.77413	     141.21950	     122.77413	     141.21950
      59.60938	     124.75211	     141.79718	     124.75211	     141.79718
      59.88281	     122.62057	     140.41879	     122.62057	     140.41879
      60.15625	     122.93500	     140.29083	     122.93500	     140.29083
      60.42969	     124.09766	     142.72949	     124.09766	     142.72949
      60.70313	     124.98245	     144.51006	     124.98245	     144.51006
      60.97656	     126.40836	     143.69107	     126.40836	     143.69107
      61.25000	     123.77958	     142.47356	     123.77958	     142.47356
      61.52344	     121.52372	     139.78629	     121.52372	     139.78629
      61.79688	     126.99335	     143.75688	     126.99335	     143.75688
      62.07031	     124.28047	     142.47722	     124.28047	     142.47722
      62.34375	     123.16534	     141.68748	     123.16534	     141.68748
      62.61719	     126.76301	     146.24307	     126.76301	     146.24307
      62.89063	     122.36829	     142.07870	     122.36829	     142.07870
      63.16406	     124.38284	     141.90686	     124.38284	     141.90686
      63.43750	     126.53999	     145.81895	     126.53999	     145.81895
      63.71094	     122.21108	     142.98543	     122.21108	     142.98543
      63.98438	     123.35546	     141.80449	     123.35546	     141.80449
      64.25781	     126.89098	     144.70016	     126.89098	     144.70016
      64.53125	     124.92396	     143.91409	     124.92396	     143.91409
      64.80469	     129.12123	     146.76590	     129.12123	     146.76590
      65.07813	     124.10497	     142.40410	     124.10497	     142.40410
      65.35156	     127.14690	     144.80620	     127.14690	     144.80620
      65.62500	     126.68989	     145.63980	     126.68989	     145.63980
      65.89844	     127.04088	     147.50810	     127.04088	     147.50810
      66.17188	     123.37009	     143.23770	     123.37009	     143.23770
      66.44531	     124.91664	     143.70569	     124.91664	     143.70569
      66.71875	     127.99514	     145.05847	     127.99514	     145.05847
      66.99219	     124.15616	     143.16092	     124.15616	     143.16092
      67.26563	     124.95321	     143.24867	     124.95321	     143.24867
      67.53906	     122.50723	     141.87395	     122.50723	     141.87395
      67.81250	     124.29144	     143.91409	     124.29144	     143.91409
      68.08594	     124.83620	     142.64540	     124.83620	     142.64540
      68.35938	     127.48328	     145.23398	     127.48328	     145.23398
      68.63281	     123.29696	     141.69479	     123.29696	     141.69479
      68.90625	     123.89658	     141.20488	     123.89658	     141.20488
      69.17969	     126.01350	     147.61414	     126.01350	     147.61414
      69.45313	     123.91486	     143.66182	     123.91486	     143.66182

Monitor Diode	1630454.70
"StandardDeviation"
  3.12500E-006	  2.00475E-002
  6.25000E-006	  2.00476E-002
  9.37500E-006	  2.00476E-002
  1.25000E-005	  2.00473E-002
  1.56250E-005	  2.00475E-002
  1.87500E-005	  2.00473E-002
  2.18750E-005	  2.00476E-002
  2.50000E-005	  2.00475E-002
  2.81250E-005	  1.99907E-002
  3.12500E-005	  2.00096E-002
  3.43750E-005	  2.00475E-002
  3.75000E-005	  1.97634E-002
  4.06250E-005	  1.99323E-002
  4.37500E-005	  1.97847E-002
  4.68750E-005	  2.00018E-002
  5.00000E-005	  1.41350E-002
  5.62500E-005	  1.40832E-002
  6.25000E-005	  1.40199E-002
  6.87500E-005	  1.41325E-002
  7.50000E-005	  1.39601E-002
  8.12500E-005	  1.41253E-002
  8.75000E-005	  1.40684E-002
  9.37500E-005	  1.40489E-002
  1.00000E-004	  9.91297E-003
  1.12500E-004	  9.95841E-003
  1.25000E-004	  9.95112E-003
  1.37500E-004	  9.97999E-003
  1.50000E-004	  9.94870E-003
  1.62500E-004	  9.93292E-003
  1.75000E-004	  9.98125E-003
  1.87500E-004	  9.88852E-003
  2.00000E-004	  7.03803E-003
  2.25000E-004	  7.05009E-003
  2.50000E-004	  7.05060E-003
  2.75000E-004	  7.02827E-003
  3.00000E-004	  7.04517E-003
  3.25000E-004	  7.04684E-003
  3.50000E-004	  7.03894E-003
  3.75000E-004	  7.02747E-003
  4.00000E-004	  4.99908E-003
  4.50000E-004	  5.00196E-003
  5.00000E-004	  5.00908E-003
  5.50000E-004	  5.00716E-003
  6.00000E-004	  4.99905E-003
  6.50000E-004	  5.00488E-003
  7.00000E-004	  5.00865E-003
  7.50000E-004	  5.00330E-003
  8.00000E-004	  3.56881E-003
  9.00000E-004	  3.57078E-003
  1.00000E-003	  3.56660E-003
  1.10000E-003	  3.56870E-003
  1.20000E-003	  3.55909E-003
  1.30000E-003	  3.56214E-003
  1.40000E-003	  3.56059E-003
  1.50000E-003	  3.56071E-003
  1.60000E-003	  2.56150E-003
  1.80000E-003	  2.55993E-003
  2.00000E-003	  2.56096E-003
  2.20000E-003	  2.55753E-003
  2.40000E-003	  2.55682E-003
  2.60000E-003	  2.55624E-003
  2.80000E-003	  2.55513E-003
  3.00000E-003	  2.55688E-003
  3.20000E-003	  1.86720E-003
  3.60000E-003	  1.86440E-003
  4.00000E-003	  1.86241E-003
  4.40000E-003	  1.85971E-003
  4.80000E-003	  1.85895E-003
  5.20000E-003	  1.85707E-003
  5.60000E-003	  1.85562E-003
  6.00000E-003	  1.85305E-003
  6.40000E-003	  1.39017E-003
  7.20000E-003	  1.38765E-003
  8.00000E-003	  1.38516E-003
  8.80000E-003	  1.38254E-003
  9.60000E-003	  1.38025E-003
  1.04000E-002	  1.37715E-003
  1.12000E-002	  1.37510E-003
  1.20000E-002	  1.37225E-003
  1.28000E-002	  1.07021E-003
  1.44000E-002	  1.06587E-003
  1.60000E-002	  1.06183E-003
  1.76000E-002	  1.05778E-003
  1.92000E-002	  1.05384E-003
  2.08000E-002	  1.04983E-003
  2.24000E-002	  1.04616E-003
  2.40000E-002	  1.04249E-003
  2.56000E-002	  8.52555E-004
  2.88000E-002	  8.45011E-004
  3.20000E-002	  8.38375E-004
  3.52000E-002	  8.31697E-004
  3.84000E-002	  8.25512E-004
  4.16000E-002	  8.19371E-004
  4.48000E-002	  8.13485E-004
  4.80000E-002	  8.07862E-004
  5.12000E-002	  6.90748E-004
  5.76000E-002	  6.79626E-004
  6.40000E-002	  6.69869E-004
  7.04000E-002	  6.60739E-004
  7.68000E-002	  6.52557E-004
  8.32000E-002	  6.44615E-004
  8.96000E-002	  6.37405E-004
  9.60000E-002	  6.30676E-004
  1.02400E-001	  5.56721E-004
  1.15200E-001	  5.44769E-004
  1.28000E-001	  5.35104E-004
  1.40800E-001	  5.26403E-004
  1.53600E-001	  5.18900E-004
  1.66400E-001	  5.12412E-004
  1.79200E-001	  5.07302E-004
  1.92000E-001	  5.03265E-004
  2.04800E-001	  4.51831E-004
  2.30400E-001	  4.46513E-004
  2.56000E-001	  4.34614E-004
  2.81600E-001	  4.34614E-004
  3.07200E-001	  4.34614E-004
  3.32800E-001	  4.34614E-004
  3.58400E-001	  4.34614E-004
  3.84000E-001	  4.34614E-004
  4.09600E-001	  3.92756E-004
  4.60800E-001	  3.92756E-004
  5.12000E-001	  3.92756E-004
  5.63200E-001	  3.92756E-004
  6.14400E-001	  3.92756E-004
  6.65600E-001	  3.92756E-004
  7.16800E-001	  3.92756E-004
  7.68000E-001	  3.92756E-004
  8.19200E-001	  3.62848E-004
  9.21600E-001	  3.62848E-004
  1.02400E+000	  3.62848E-004
  1.12640E+000	  3.62848E-004
  1.22880E+000	  3.62848E-004
  1.33120E+000	  3.62848E-004
  1.43360E+000	  3.62848E-004
  1.53600E+000	  3.62848E-004
  1.63840E+000	  3.12549E-004
  1.84320E+000	  3.12549E-004
  2.04800E+000	  3.12549E-004
  2.25280E+000	  3.12549E-004
  2.45760E+000	  3.12549E-004
  2.66240E+000	  3.12549E-004
  2.86720E+000	  3.12549E-004
  3.07200E+000	  3.12549E-004
  3.27680E+000	  2.53703E-004
  3.68640E+000	  2.53703E-004
  4.09600E+000	  2.53703E-004
  4.50560E+000	  2.53703E-004
  4.91520E+000	  2.53703E-004
  5.32480E+000	  2.53703E-004
  5.73440E+000	  2.53703E-004
  6.14400E+000	  2.53703E-004
  6.55360E+000	  1.94014E-004
  7.37280E+000	  1.94014E-004
  8.19200E+000	  1.94014E-004
  9.01120E+000	  1.94014E-004
  9.83040E+000	  1.94014E-004
  1.06496E+001	  1.94014E-004
  1.14688E+001	  1.94014E-004
  1.22880E+001	  1.94014E-004
  1.31072E+001	  1.42512E-004
  1.47456E+001	  1.42512E-004
  1.63840E+001	  1.42512E-004
  1.80224E+001	  1.42512E-004
  1.96608E+001	  1.42512E-004
  2.12992E+001	  1.42512E-004
  2.29376E+001	  1.42512E-004
  2.45760E+001	  1.42512E-004
  2.62144E+001	  1.02654E-004
  2.94912E+001	  1.02654E-004
  3.27680E+001	  1.02654E-004
  3.60448E+001	  1.02654E-004
  3.93216E+001	  1.02654E-004
  4.25984E+001	  1.02654E-004
  4.58752E+001	  1.02654E-004
  4.91520E+001	  1.02654E-004
  5.24288E+001	  7.32525E-005
  5.89824E+001	  7.32525E-005
  6.55360E+001	  7.32525E-005
  7.20896E+001	  7.32525E-005
  7.86432E+001	  7.32525E-005
  8.51968E+001	  7.32525E-005
  9.17504E+001	  7.32525E-005
  9.83040E+001	  7.32525E-005
  1.04858E+002	  5.20326E-005
  1.17965E+002	  5.20326E-005
  1.31072E+002	  5.20326E-005
  1.44179E+002	  5.20326E-005
  1.57286E+002	  5.20326E-005
  1.70394E+002	  5.20326E-005
  1.83501E+002	  5.20326E-005
  1.96608E+002	  5.20326E-005
  2.09715E+002	  3.68758E-005
  2.35930E+002	  3.68758E-005
  2.62144E+002	  3.68758E-005
  2.88358E+002	  3.68758E-005
  3.14573E+002	  3.68758E-005
  3.40787E+002	  3.68758E-005
  3.67002E+002	  3.68758E-005
  3.93216E+002	  3.68758E-005
  4.19430E+002	  2.61045E-005
  4.71859E+002	  2.61045E-005
  5.24288E+002	  2.61045E-005
  5.76717E+002	  2.61045E-005
  6.29146E+002	  2.61045E-005
  6.81574E+002	  2.61045E-005
  7.34003E+002	  2.61045E-005
  7.86432E+002	  2.61045E-005
  8.38861E+002	  1.84691E-005
  9.43718E+002	  1.84691E-005
  1.04858E+003	  1.84691E-005
  1.15343E+003	  1.84691E-005
  1.25829E+003	  1.84691E-005
  1.36315E+003	  1.84691E-005
  1.46801E+003	  1.84691E-005
  1.57286E+003	  1.84691E-005
  1.67772E+003	  1.30633E-005
  1.88744E+003	  1.30633E-005
  2.09715E+003	  1.30633E-005
  2.30687E+003	  1.30633E-005
  2.51658E+003	  1.30633E-005
  2.72630E+003	  1.30633E-005
  2.93601E+003	  1.30633E-005
  3.14573E+003	  1.30633E-005
  3.35544E+003	  9.23844E-006
  3.77487E+003	  9.23844E-006
  4.19430E+003	  9.23844E-006
  4.61373E+003	  9.23844E-006
  5.03317E+003	  9.23844E-006
  5.45260E+003	  9.23844E-006
  5.87203E+003	  9.23844E-006
  6.29146E+003	  9.23844E-006
  6.71089E+003	  6.53303E-006
  7.54975E+003	  6.53303E-006
  8.38861E+003	  6.53303E-006
  9.22747E+003	  6.53303E-006
  1.00663E+004	  6.53303E-006
  1.09052E+004	  6.53303E-006
  1.17441E+004	  6.53303E-006
