TITLE	BSA_c1_g1_8.3mMYCl3
DATA TYPE	ULTRAVIOLET SPECTRUM
ORIGIN	JASCO
OWNER	TOF
DATE	10/03/28
TIME	10:49:29
SPECTROMETER/DATA SYSTEM	
LOCALE	2057
RESOLUTION	
DELTAX	-0.5
XUNITS	NANOMETERS
YUNITS	ABSORBANCE
FIRSTX	  800.0000
LASTX	  250.0000
NPOINTS	    1101
FIRSTY	    -0.00113
MAXY	     0.70314
MINY	    -0.00113
XYDATA
800.0000	-0.00113294
799.5000	-0.00113333
799.0000	-0.00111404
798.5000	-0.00109844
798.0000	-0.00109956
797.5000	-0.0010942
797.0000	-0.00108368
796.5000	-0.00107145
796.0000	-0.00108554
795.5000	-0.00105942
795.0000	-0.00103286
794.5000	-0.00103169
794.0000	-0.00102905
793.5000	-0.00104059
793.0000	-0.000995915
792.5000	-0.000990753
792.0000	-0.000977129
791.5000	-0.000995621
791.0000	-0.00102658
790.5000	-0.00102664
790.0000	-0.000979273
789.5000	-0.000939869
789.0000	-0.000907668
788.5000	-0.000936569
788.0000	-0.000963308
787.5000	-0.000985889
787.0000	-0.000987361
786.5000	-0.000950394
786.0000	-0.000931214
785.5000	-0.000918479
785.0000	-0.000956403
784.5000	-0.000984925
784.0000	-0.00102025
783.5000	-0.000984168
783.0000	-0.000945069
782.5000	-0.000913428
782.0000	-0.000922405
781.5000	-0.000925488
781.0000	-0.000924787
780.5000	-0.00090522
780.0000	-0.000898498
779.5000	-0.000879827
779.0000	-0.000898938
778.5000	-0.000894281
778.0000	-0.000898576
777.5000	-0.000862748
777.0000	-0.000848076
776.5000	-0.000850448
776.0000	-0.000859404
775.5000	-0.000868495
775.0000	-0.000864709
774.5000	-0.000843829
774.0000	-0.000824525
773.5000	-0.000800211
773.0000	-0.000787539
772.5000	-0.000777198
772.0000	-0.000772978
771.5000	-0.000778732
771.0000	-0.000755872
770.5000	-0.000745014
770.0000	-0.000742452
769.5000	-0.000753952
769.0000	-0.000762963
768.5000	-0.000757737
768.0000	-0.000779505
767.5000	-0.000788873
767.0000	-0.000786078
766.5000	-0.000755454
766.0000	-0.000756038
765.5000	-0.000756545
765.0000	-0.000745514
764.5000	-0.000744853
764.0000	-0.000731268
763.5000	-0.000731672
763.0000	-0.000722391
762.5000	-0.000727291
762.0000	-0.000724126
761.5000	-0.000705457
761.0000	-0.000693954
760.5000	-0.000678826
760.0000	-0.000659321
759.5000	-0.000637269
759.0000	-0.000608837
758.5000	-0.000609597
758.0000	-0.000615553
757.5000	-0.000623847
757.0000	-0.000631365
756.5000	-0.000613678
756.0000	-0.000604933
755.5000	-0.000593872
755.0000	-0.000577922
754.5000	-0.000578347
754.0000	-0.000573726
753.5000	-0.000596092
753.0000	-0.000619992
752.5000	-0.000620345
752.0000	-0.000607804
751.5000	-0.000575685
751.0000	-0.000571382
750.5000	-0.000577122
750.0000	-0.000574364
749.5000	-0.000564035
749.0000	-0.000548552
748.5000	-0.000539728
748.0000	-0.000527772
747.5000	-0.000512272
747.0000	-0.000507278
746.5000	-0.000490792
746.0000	-0.000472426
745.5000	-0.000438261
745.0000	-0.000417961
744.5000	-0.000417952
744.0000	-0.000426024
743.5000	-0.000433573
743.0000	-0.000401451
742.5000	-0.000376591
742.0000	-0.000369151
741.5000	-0.000369962
741.0000	-0.00035908
740.5000	-0.000351959
740.0000	-0.000299519
739.5000	-0.00027494
739.0000	-0.00026923
738.5000	-0.000215714
738.0000	-0.000179068
737.5000	-0.000112372
737.0000	-8.13553E-005
736.5000	-4.52461E-006
736.0000	7.11692E-005
735.5000	0.000183818
735.0000	0.00029661
734.5000	0.000401702
734.0000	0.000544111
733.5000	0.000721643
733.0000	0.000992517
732.5000	0.00130763
732.0000	0.00168216
731.5000	0.0021017
731.0000	0.00259005
730.5000	0.00312384
730.0000	0.0036178
729.5000	0.00403766
729.0000	0.00428084
728.5000	0.0043361
728.0000	0.00417738
727.5000	0.00385599
727.0000	0.00343597
726.5000	0.00300157
726.0000	0.00257656
725.5000	0.00214881
725.0000	0.00173403
724.5000	0.00144278
724.0000	0.00125568
723.5000	0.00118403
723.0000	0.00116872
722.5000	0.00119752
722.0000	0.00121601
721.5000	0.00119766
721.0000	0.00116579
720.5000	0.00112451
720.0000	0.00111163
719.5000	0.00112175
719.0000	0.00111958
718.5000	0.00112641
718.0000	0.0011217
717.5000	0.00112928
717.0000	0.00111864
716.5000	0.00109686
716.0000	0.00108788
715.5000	0.0010609
715.0000	0.00107712
714.5000	0.00108671
714.0000	0.00111485
713.5000	0.00112501
713.0000	0.00112238
712.5000	0.00111063
712.0000	0.00111802
711.5000	0.00112918
711.0000	0.00115143
710.5000	0.00114216
710.0000	0.00112874
709.5000	0.00113361
709.0000	0.00113625
708.5000	0.0011264
708.0000	0.00110228
707.5000	0.00109176
707.0000	0.00109471
706.5000	0.00111902
706.0000	0.00113735
705.5000	0.00114286
705.0000	0.00118236
704.5000	0.00117839
704.0000	0.0012128
703.5000	0.00121773
703.0000	0.00124564
702.5000	0.00126935
702.0000	0.00128684
701.5000	0.00130812
701.0000	0.00131862
700.5000	0.00130842
700.0000	0.00129457
699.5000	0.0012718
699.0000	0.00128097
698.5000	0.00129033
698.0000	0.00128811
697.5000	0.00128441
697.0000	0.00127081
696.5000	0.00128749
696.0000	0.00132302
695.5000	0.00135483
695.0000	0.00137389
694.5000	0.00137484
694.0000	0.00136916
693.5000	0.00136767
693.0000	0.00139321
692.5000	0.00141738
692.0000	0.0014517
691.5000	0.00146626
691.0000	0.00149223
690.5000	0.00149401
690.0000	0.00150525
689.5000	0.00150906
689.0000	0.00151332
688.5000	0.00153766
688.0000	0.00155501
687.5000	0.00157688
687.0000	0.00156594
686.5000	0.0015605
686.0000	0.00154567
685.5000	0.00154867
685.0000	0.00154943
684.5000	0.00157407
684.0000	0.00159778
683.5000	0.00162204
683.0000	0.00164056
682.5000	0.00166204
682.0000	0.00166769
681.5000	0.00168325
681.0000	0.00169616
680.5000	0.00168594
680.0000	0.00169424
679.5000	0.00170263
679.0000	0.00174076
678.5000	0.00177869
678.0000	0.00179561
677.5000	0.00180044
677.0000	0.00179975
676.5000	0.00178896
676.0000	0.00180913
675.5000	0.00181698
675.0000	0.00184448
674.5000	0.00185317
674.0000	0.00185978
673.5000	0.00187307
673.0000	0.00189819
672.5000	0.00191889
672.0000	0.0019301
671.5000	0.00194791
671.0000	0.00193433
670.5000	0.00196218
670.0000	0.00194819
669.5000	0.00195243
669.0000	0.00196494
668.5000	0.00197644
668.0000	0.00199739
667.5000	0.0020002
667.0000	0.00200949
666.5000	0.0020238
666.0000	0.00205093
665.5000	0.00206461
665.0000	0.00206568
664.5000	0.00209315
664.0000	0.00212145
663.5000	0.00216168
663.0000	0.00217384
662.5000	0.00219202
662.0000	0.00221671
661.5000	0.00221825
661.0000	0.00221262
660.5000	0.00221218
660.0000	0.00223479
659.5000	0.00224586
659.0000	0.00225592
658.5000	0.00225507
658.0000	0.00227447
657.5000	0.00229488
657.0000	0.00232459
656.5000	0.00235265
656.0000	0.00234422
655.5000	0.00236089
655.0000	0.00236439
654.5000	0.00238153
654.0000	0.00237998
653.5000	0.00238569
653.0000	0.0024093
652.5000	0.0024275
652.0000	0.00244218
651.5000	0.00246651
651.0000	0.00246454
650.5000	0.00247806
650.0000	0.00247648
649.5000	0.00249456
649.0000	0.00250295
648.5000	0.0025301
648.0000	0.00255093
647.5000	0.0025856
647.0000	0.00260165
646.5000	0.00261055
646.0000	0.00261841
645.5000	0.00262867
645.0000	0.00263337
644.5000	0.00264046
644.0000	0.0026431
643.5000	0.00265642
643.0000	0.00267022
642.5000	0.00269394
642.0000	0.00272707
641.5000	0.00276501
641.0000	0.00277325
640.5000	0.0027789
640.0000	0.00277522
639.5000	0.00277836
639.0000	0.0027718
638.5000	0.00276804
638.0000	0.00278473
637.5000	0.00279958
637.0000	0.00283918
636.5000	0.00285304
636.0000	0.00288441
635.5000	0.00288807
635.0000	0.00288999
634.5000	0.00291885
634.0000	0.00292836
633.5000	0.00294019
633.0000	0.00293055
632.5000	0.00295233
632.0000	0.00297389
631.5000	0.00300623
631.0000	0.00300802
630.5000	0.00302247
630.0000	0.00302313
629.5000	0.00303377
629.0000	0.00305832
628.5000	0.00309055
628.0000	0.00312857
627.5000	0.0031315
627.0000	0.00314285
626.5000	0.00315786
626.0000	0.00316816
625.5000	0.00317731
625.0000	0.00319028
624.5000	0.00323108
624.0000	0.00325766
623.5000	0.00325683
623.0000	0.00324992
622.5000	0.00326097
622.0000	0.0032625
621.5000	0.00327349
621.0000	0.00325661
620.5000	0.00327113
620.0000	0.00328069
619.5000	0.00328675
619.0000	0.00327304
618.5000	0.00329468
618.0000	0.00332345
617.5000	0.00336029
617.0000	0.0034046
616.5000	0.0034157
616.0000	0.00342143
615.5000	0.00341145
615.0000	0.00341935
614.5000	0.00345392
614.0000	0.00347104
613.5000	0.00350783
613.0000	0.00353054
612.5000	0.0035589
612.0000	0.00355097
611.5000	0.00356281
611.0000	0.00357412
610.5000	0.00356945
610.0000	0.00356018
609.5000	0.00356058
609.0000	0.00358014
608.5000	0.00361226
608.0000	0.00362394
607.5000	0.00365495
607.0000	0.00368136
606.5000	0.00371141
606.0000	0.00369863
605.5000	0.00368959
605.0000	0.00370533
604.5000	0.0037322
604.0000	0.0037648
603.5000	0.00377803
603.0000	0.00379018
602.5000	0.00378003
602.0000	0.00379928
601.5000	0.00382571
601.0000	0.00383829
600.5000	0.00383091
600.0000	0.00381939
599.5000	0.00383429
599.0000	0.00382744
598.5000	0.00384013
598.0000	0.00384579
597.5000	0.00387925
597.0000	0.00391961
596.5000	0.00394207
596.0000	0.00396892
595.5000	0.00398079
595.0000	0.00398616
594.5000	0.00398478
594.0000	0.00398335
593.5000	0.00400384
593.0000	0.0040111
592.5000	0.0040102
592.0000	0.00404145
591.5000	0.00405469
591.0000	0.0040802
590.5000	0.00408759
590.0000	0.00409068
589.5000	0.00408326
589.0000	0.00409406
588.5000	0.00411766
588.0000	0.00416078
587.5000	0.00416805
587.0000	0.00416808
586.5000	0.00418185
586.0000	0.00419629
585.5000	0.00421709
585.0000	0.00421552
584.5000	0.00423536
584.0000	0.00424817
583.5000	0.00425951
583.0000	0.00426865
582.5000	0.00426159
582.0000	0.0042697
581.5000	0.0042872
581.0000	0.00430972
580.5000	0.0043589
580.0000	0.00438001
579.5000	0.00440472
579.0000	0.00439381
578.5000	0.00440103
578.0000	0.00439719
577.5000	0.00442132
577.0000	0.0044499
576.5000	0.00448777
576.0000	0.00449338
575.5000	0.00448948
575.0000	0.00450835
574.5000	0.00451908
574.0000	0.00452538
573.5000	0.00452755
573.0000	0.00452107
572.5000	0.0045412
572.0000	0.00459098
571.5000	0.00459053
571.0000	0.00457834
570.5000	0.00455868
570.0000	0.00456341
569.5000	0.00458576
569.0000	0.00462209
568.5000	0.00465393
568.0000	0.00469339
567.5000	0.00469563
567.0000	0.00468885
566.5000	0.00469273
566.0000	0.00469767
565.5000	0.0047097
565.0000	0.00471193
564.5000	0.00476166
564.0000	0.00477565
563.5000	0.0047572
563.0000	0.00474067
562.5000	0.00475516
562.0000	0.00477645
561.5000	0.00480539
561.0000	0.00479895
560.5000	0.00480681
560.0000	0.00481773
559.5000	0.00484789
559.0000	0.00484412
558.5000	0.0048574
558.0000	0.00484298
557.5000	0.00487641
557.0000	0.00490138
556.5000	0.00492236
556.0000	0.00493823
555.5000	0.00494546
555.0000	0.00494537
554.5000	0.0049348
554.0000	0.0049477
553.5000	0.00496584
553.0000	0.00497803
552.5000	0.00498994
552.0000	0.00500521
551.5000	0.00502995
551.0000	0.00507208
550.5000	0.00506774
550.0000	0.00506413
549.5000	0.00504556
549.0000	0.00503556
548.5000	0.00505941
548.0000	0.00506816
547.5000	0.00511446
547.0000	0.00511337
546.5000	0.00513456
546.0000	0.00514575
545.5000	0.00519749
545.0000	0.00525021
544.5000	0.00526376
544.0000	0.00525022
543.5000	0.00521282
543.0000	0.00523537
542.5000	0.00527236
542.0000	0.00528557
541.5000	0.00529977
541.0000	0.00531371
540.5000	0.00532441
540.0000	0.00534886
539.5000	0.00534226
539.0000	0.00536415
538.5000	0.00535742
538.0000	0.00540034
537.5000	0.00542085
537.0000	0.00546704
536.5000	0.00550225
536.0000	0.00551196
535.5000	0.00549704
535.0000	0.00547733
534.5000	0.00548809
534.0000	0.00550303
533.5000	0.00552184
533.0000	0.0055305
532.5000	0.00553799
532.0000	0.00552942
531.5000	0.00553899
531.0000	0.00557731
530.5000	0.00558517
530.0000	0.00558498
529.5000	0.00557921
529.0000	0.00556953
528.5000	0.00559286
528.0000	0.00561277
527.5000	0.00562262
527.0000	0.00565353
526.5000	0.00566352
526.0000	0.00566808
525.5000	0.00567579
525.0000	0.00564577
524.5000	0.00566225
524.0000	0.00567508
523.5000	0.00572572
523.0000	0.00573095
522.5000	0.00573531
522.0000	0.00575888
521.5000	0.00578145
521.0000	0.00581196
520.5000	0.00580988
520.0000	0.00582951
519.5000	0.00586103
519.0000	0.00587583
518.5000	0.00585405
518.0000	0.00583109
517.5000	0.0058198
517.0000	0.00583455
516.5000	0.00588078
516.0000	0.00590274
515.5000	0.00595652
515.0000	0.00592488
514.5000	0.0059235
514.0000	0.0059116
513.5000	0.0059148
513.0000	0.00593531
512.5000	0.00593313
512.0000	0.0059314
511.5000	0.00594019
511.0000	0.00596886
510.5000	0.00600318
510.0000	0.00600964
509.5000	0.0060061
509.0000	0.00602725
508.5000	0.00606359
508.0000	0.00611792
507.5000	0.00616452
507.0000	0.00617124
506.5000	0.0061717
506.0000	0.0061457
505.5000	0.00613572
505.0000	0.0061317
504.5000	0.00614727
504.0000	0.00615347
503.5000	0.00615311
503.0000	0.00616939
502.5000	0.00617445
502.0000	0.00620605
501.5000	0.00619969
501.0000	0.00623508
500.5000	0.0062636
500.0000	0.00621893
499.5000	0.00621025
499.0000	0.00621542
498.5000	0.00618827
498.0000	0.00622413
497.5000	0.00624333
497.0000	0.00628936
496.5000	0.00628049
496.0000	0.00626983
495.5000	0.00625607
495.0000	0.00631043
494.5000	0.00634048
494.0000	0.00636212
493.5000	0.00636669
493.0000	0.00639946
492.5000	0.00642873
492.0000	0.00643666
491.5000	0.00642361
491.0000	0.00642213
490.5000	0.00645838
490.0000	0.00650129
489.5000	0.0065129
489.0000	0.00651589
488.5000	0.00652856
488.0000	0.00651079
487.5000	0.00650591
487.0000	0.00650789
486.5000	0.00654612
486.0000	0.0065797
485.5000	0.00663963
485.0000	0.00664317
484.5000	0.00664422
484.0000	0.00663084
483.5000	0.00662999
483.0000	0.0066066
482.5000	0.00663031
482.0000	0.006646
481.5000	0.00671419
481.0000	0.0067283
480.5000	0.00674955
480.0000	0.00678356
479.5000	0.00682309
479.0000	0.00682319
478.5000	0.00684713
478.0000	0.00687297
477.5000	0.00689013
477.0000	0.00688629
476.5000	0.00689572
476.0000	0.00693842
475.5000	0.0069739
475.0000	0.00696459
474.5000	0.00696736
474.0000	0.00695839
473.5000	0.006966
473.0000	0.00699064
472.5000	0.00703211
472.0000	0.00708509
471.5000	0.00710144
471.0000	0.00707832
470.5000	0.00708208
470.0000	0.00712218
469.5000	0.0071707
469.0000	0.00715777
468.5000	0.00713316
468.0000	0.00715273
467.5000	0.00717147
467.0000	0.00719369
466.5000	0.00716039
466.0000	0.00717581
465.5000	0.00721803
465.0000	0.0072785
464.5000	0.00730815
464.0000	0.00731829
463.5000	0.00732257
463.0000	0.00734759
462.5000	0.00741684
462.0000	0.00745532
461.5000	0.00749679
461.0000	0.00746862
460.5000	0.00748064
460.0000	0.00750449
459.5000	0.00752418
459.0000	0.00755652
458.5000	0.00759609
458.0000	0.00763433
457.5000	0.00761084
457.0000	0.00758641
456.5000	0.00757244
456.0000	0.00758485
455.5000	0.00758241
455.0000	0.00757023
454.5000	0.00755439
454.0000	0.00755862
453.5000	0.00754688
453.0000	0.00749977
452.5000	0.0074848
452.0000	0.00750782
451.5000	0.00752668
451.0000	0.0075238
450.5000	0.00750874
450.0000	0.00750362
449.5000	0.00752595
449.0000	0.0075501
448.5000	0.00758532
448.0000	0.0076488
447.5000	0.00764091
447.0000	0.00764397
446.5000	0.00764907
446.0000	0.0076744
445.5000	0.00771156
445.0000	0.00775876
444.5000	0.00782239
444.0000	0.00786405
443.5000	0.00786541
443.0000	0.00791088
442.5000	0.00793668
442.0000	0.00800665
441.5000	0.00800714
441.0000	0.00804281
440.5000	0.00806313
440.0000	0.00808194
439.5000	0.00813002
439.0000	0.00815858
438.5000	0.00817251
438.0000	0.00817862
437.5000	0.00819015
437.0000	0.00824558
436.5000	0.00827331
436.0000	0.00832572
435.5000	0.0083874
435.0000	0.00838127
434.5000	0.00836825
434.0000	0.0083573
433.5000	0.00837455
433.0000	0.00841594
432.5000	0.00843079
432.0000	0.00848
431.5000	0.00857067
431.0000	0.00857523
430.5000	0.00862081
430.0000	0.00861517
429.5000	0.00865156
429.0000	0.00864366
428.5000	0.00864334
428.0000	0.00862546
427.5000	0.00865099
427.0000	0.00867832
426.5000	0.00871035
426.0000	0.00876106
425.5000	0.00879632
425.0000	0.00882191
424.5000	0.00880454
424.0000	0.00882734
423.5000	0.00883558
423.0000	0.0088786
422.5000	0.00888781
422.0000	0.00892246
421.5000	0.00892661
421.0000	0.00896421
420.5000	0.00900391
420.0000	0.00902743
419.5000	0.00904991
419.0000	0.00906189
418.5000	0.00909735
418.0000	0.00908587
417.5000	0.00911123
417.0000	0.00911827
416.5000	0.00917797
416.0000	0.00917501
415.5000	0.00920842
415.0000	0.00918319
414.5000	0.0092216
414.0000	0.00921289
413.5000	0.0092381
413.0000	0.00921742
412.5000	0.00920798
412.0000	0.00916291
411.5000	0.00913821
411.0000	0.00912273
410.5000	0.00911662
410.0000	0.00909508
409.5000	0.00905569
409.0000	0.00907728
408.5000	0.00909588
408.0000	0.00908184
407.5000	0.0090767
407.0000	0.00908526
406.5000	0.00907901
406.0000	0.00903117
405.5000	0.00895783
405.0000	0.00888497
404.5000	0.00884849
404.0000	0.00887757
403.5000	0.00889403
403.0000	0.00898058
402.5000	0.00894984
402.0000	0.0089905
401.5000	0.00911928
401.0000	0.00916974
400.5000	0.00922688
400.0000	0.00916827
399.5000	0.0093092
399.0000	0.00946601
398.5000	0.00969164
398.0000	0.00984759
397.5000	0.0101439
397.0000	0.0103979
396.5000	0.0107345
396.0000	0.0110293
395.5000	0.0113491
395.0000	0.0116584
394.5000	0.0119637
394.0000	0.0123218
393.5000	0.0126374
393.0000	0.0129737
392.5000	0.0132117
392.0000	0.0136172
391.5000	0.0139309
391.0000	0.014255
390.5000	0.0144875
390.0000	0.0147707
389.5000	0.0149324
389.0000	0.0151411
388.5000	0.0152895
388.0000	0.0153711
387.5000	0.0153997
387.0000	0.0154172
386.5000	0.0154518
386.0000	0.0153747
385.5000	0.0152454
385.0000	0.0151446
384.5000	0.0150758
384.0000	0.0150893
383.5000	0.0149609
383.0000	0.014817
382.5000	0.0146868
382.0000	0.014553
381.5000	0.0144204
381.0000	0.0142839
380.5000	0.0142902
380.0000	0.0142425
379.5000	0.0141965
379.0000	0.0141211
378.5000	0.014108
378.0000	0.0141424
377.5000	0.0140651
377.0000	0.0139733
376.5000	0.013825
376.0000	0.0137409
375.5000	0.0137639
375.0000	0.0136747
374.5000	0.0136895
374.0000	0.0137083
373.5000	0.0136756
373.0000	0.0136099
372.5000	0.0135276
372.0000	0.0136717
371.5000	0.0137127
371.0000	0.0136434
370.5000	0.013487
370.0000	0.0134855
369.5000	0.013513
369.0000	0.0134822
368.5000	0.0136191
368.0000	0.0134838
367.5000	0.013607
367.0000	0.0133839
366.5000	0.0132744
366.0000	0.0133285
365.5000	0.0133734
365.0000	0.0133382
364.5000	0.0134849
364.0000	0.0135809
363.5000	0.0134312
363.0000	0.0134297
362.5000	0.0131937
362.0000	0.013321
361.5000	0.0134169
361.0000	0.0137957
360.5000	0.0138111
360.0000	0.0139605
359.5000	0.0140393
359.0000	0.0140788
358.5000	0.0141656
358.0000	0.0143356
357.5000	0.0144969
357.0000	0.0144971
356.5000	0.0143652
356.0000	0.0143364
355.5000	0.0145268
355.0000	0.014796
354.5000	0.0148964
354.0000	0.0149358
353.5000	0.0149365
353.0000	0.0150547
352.5000	0.0150433
352.0000	0.0150169
351.5000	0.0150296
351.0000	0.0151443
350.5000	0.0153146
350.0000	0.0153503
349.5000	0.0152967
349.0000	0.015282
348.5000	0.0154543
348.0000	0.0156827
347.5000	0.0159877
347.0000	0.0159279
346.5000	0.0160779
346.0000	0.0159432
345.5000	0.0161299
345.0000	0.016131
344.5000	0.016313
344.0000	0.0164116
343.5000	0.0165043
343.0000	0.0165576
342.5000	0.0166107
342.0000	0.0166151
341.5000	0.0167799
341.0000	0.0167362
340.5000	0.0171519
340.0000	0.0171521
339.5000	0.0168721
339.0000	0.0168132
338.5000	0.017234
338.0000	0.0171942
337.5000	0.0175403
337.0000	0.0174816
336.5000	0.0175563
336.0000	0.0174676
335.5000	0.0171803
335.0000	0.0172904
334.5000	0.0173886
334.0000	0.0175864
333.5000	0.0179671
333.0000	0.0180439
332.5000	0.0183687
332.0000	0.0186594
331.5000	0.0187606
331.0000	0.0186966
330.5000	0.0185949
330.0000	0.0188127
329.5000	0.0190812
329.0000	0.0193171
328.5000	0.0194597
328.0000	0.0196784
327.5000	0.0198971
327.0000	0.019685
326.5000	0.0199665
326.0000	0.0200026
325.5000	0.0204519
325.0000	0.0206187
324.5000	0.0206692
324.0000	0.0205815
323.5000	0.0207077
323.0000	0.0208774
322.5000	0.0209256
322.0000	0.0211708
321.5000	0.0210857
321.0000	0.0214666
320.5000	0.0216038
320.0000	0.022005
319.5000	0.0219723
319.0000	0.022048
318.5000	0.0221253
318.0000	0.0223851
317.5000	0.0225417
317.0000	0.0228402
316.5000	0.023085
316.0000	0.0233612
315.5000	0.0238153
315.0000	0.0239659
314.5000	0.0242676
314.0000	0.024497
313.5000	0.0248756
313.0000	0.0253179
312.5000	0.0256604
312.0000	0.0260043
311.5000	0.0264366
311.0000	0.0268591
310.5000	0.0273157
310.0000	0.0275736
309.5000	0.0282194
309.0000	0.0291464
308.5000	0.0297841
308.0000	0.0305454
307.5000	0.0317884
307.0000	0.0328996
306.5000	0.0342284
306.0000	0.0354261
305.5000	0.0367949
305.0000	0.0382615
304.5000	0.0398704
304.0000	0.041831
303.5000	0.0437748
303.0000	0.0459344
302.5000	0.048436
302.0000	0.0513884
301.5000	0.0545866
301.0000	0.0577271
300.5000	0.0611338
300.0000	0.0650461
299.5000	0.0695199
299.0000	0.0745385
298.5000	0.0800249
298.0000	0.0858741
297.5000	0.0926221
297.0000	0.100194
296.5000	0.108792
296.0000	0.11825
295.5000	0.129097
295.0000	0.141176
294.5000	0.155198
294.0000	0.170925
293.5000	0.188811
293.0000	0.209105
292.5000	0.231356
292.0000	0.255271
291.5000	0.280156
291.0000	0.305898
290.5000	0.331966
290.0000	0.358613
289.5000	0.385263
289.0000	0.411998
288.5000	0.439104
288.0000	0.466485
287.5000	0.49393
287.0000	0.52
286.5000	0.544315
286.0000	0.566423
285.5000	0.586128
285.0000	0.602989
284.5000	0.617324
284.0000	0.62918
283.5000	0.63925
283.0000	0.647718
282.5000	0.655465
282.0000	0.662863
281.5000	0.670711
281.0000	0.678514
280.5000	0.686197
280.0000	0.692566
279.5000	0.69783
279.0000	0.701415
278.5000	0.703137
278.0000	0.702785
277.5000	0.700586
277.0000	0.696504
276.5000	0.691201
276.0000	0.685087
275.5000	0.677664
275.0000	0.669947
274.5000	0.66163
274.0000	0.653308
273.5000	0.644715
273.0000	0.635761
272.5000	0.62676
272.0000	0.617608
271.5000	0.609339
271.0000	0.601425
270.5000	0.594057
270.0000	0.586884
269.5000	0.579698
269.0000	0.57173
268.5000	0.562546
268.0000	0.552069
267.5000	0.54124
267.0000	0.530998
266.5000	0.522346
266.0000	0.51495
265.5000	0.507992
265.0000	0.499709
264.5000	0.489423
264.0000	0.477138
263.5000	0.464641
263.0000	0.453405
262.5000	0.444071
262.0000	0.436567
261.5000	0.430229
261.0000	0.424788
260.5000	0.420131
260.0000	0.41617
259.5000	0.41217
259.0000	0.406819
258.5000	0.399502
258.0000	0.390003
257.5000	0.379379
257.0000	0.368966
256.5000	0.360311
256.0000	0.353786
255.5000	0.349398
255.0000	0.346665
254.5000	0.34531
254.0000	0.344698
253.5000	0.344229
253.0000	0.343607
252.5000	0.342444
252.0000	0.341053
251.5000	0.339854
251.0000	0.33981
250.5000	0.341444
250.0000	0.345496

##### Extended Information
[Comment]
Sample Name	BSA_c1_g1_8.3mMYCl3
Comment	8.3mMYCl3
User	FZ
Division	TOF
Company	ILL

[Data Information]
Creation Date	28/03/2010 10:49
Data array type	Linear data array
Horizontal	Wavelength [nm]
Vertical	Abs
Start	800 nm
End	250 nm
Data pitch	0.5 nm
Data points	1101    

[Measurement Information]
Instrument Name	UV/Vis
Model Name	V-630
Serial No.	A062261148

Accessory	HMC-711
Accessory S/N	B001961107
  Cell Length	10 mm
  Temperature	25.00 C

Photometric Mode	Abs
Measurement range	800 - 250 nm
Data pitch	0.5 nm
Band width(UV/Vis)	1.5 nm
Response	Fast
Scanning speed	400 nm/min
Source Change	340 nm
Light Source	D2/WI
Filter Exchange	Step
Correction	Baseline

